Fp1,Fp2,C3,C4,P3,P4,O1,O2
-20.9284,-18.0395,-22.4124,-22.5786,-22.3271,-17.7554,-13.5749,-4.5225,8.6782,9.2307,6.1714,18.3701,14.4288,26.3029,22.1492,22.9916,27.7449,23.3130,-1.3918,6.5347,8.6725,13.3382,2.9886,-5.5765,-8.5182,-19.4123,-22.5483,-8.3895,-8.8243,-14.2044,-20.1039,-14.1200,-16.8538,-10.6927,-10.3329,6.9696,18.9806,13.4625,20.6159,28.4153,18.5417,18.6027,32.5363,16.1052,18.6369,29.7445,30.0468,24.8622,13.3370,2.9367,-13.5893,-10.9705,-15.4698,-10.6740,-1.0404,-2.2218,-11.8964,-1.0584,-2.3692,-6.6552,3.8905,-4.9840,10.2899,4.0407,-0.4375,18.8596,23.1620,31.3057,29.3763,28.8509,22.5597,12.4408,26.2207,15.6179,27.5125,25.0778,4.1037,-4.5854,-15.0751,-25.0541,-22.8532,-17.5656,-12.5194,-19.2452,-14.6428,-10.6594,-9.0825,-13.3845,-4.9096,7.1981,6.4990,5.8827,13.0253,22.2312,30.3787,32.5273,26.8590,34.1780,19.5324,20.6636,26.9769,31.1708,14.9857,14.2795,18.1046,-0.5435,-5.6298,-7.5128,-9.2217,-4.5384,-10.0058,-2.8738,1.6396,-4.0104,-1.5717,5.7330,13.3783,22.3686,27.5391,26.5640,20.6767,24.7709,18.4532,20.4503,16.6641,16.0542,25.2919,12.6224,8.1998,14.3600,15.4345,5.6545,6.9750,1.6092,-0.7144,-9.3293,-0.5385,-5.7395,-2.0901,0.2357,5.5705,18.1854,10.0326,11.9326,13.2132,22.4734,17.7794,19.9578,31.6727,31.9609,28.9339,35.8880,31.3802,29.4775,28.4861,44.3345,34.9669,33.2468,20.8490,14.0234,3.8580,12.0949,-1.7205,-12.1275,-12.0770,-17.8819,-7.7678,-6.9976,7.1400,8.5590,15.5105,22.1663,22.0223,32.7112,35.8402,27.3458,27.5462,30.0314,22.9519,17.6937,21.7036,13.7555,14.7805,18.4240,6.1426,4.8422,4.1334,6.1060,-2.2745,-20.8211,-12.0323,-12.5362,-7.2047,0.7746,-0.1422,14.3117,13.2679,12.1161,4.2338,10.0987,19.4634,12.7890,14.5195,27.3475,27.0668,27.0765,17.3070,19.3710,23.3993,22.0632,18.1460,6.2561,5.4174,0.7898,-9.6773,3.2982,-7.6326,-3.8931,-4.0181,-6.9631,-4.8877,-10.8237,-3.9222,0.1026,12.0395,5.0510,5.5499,15.8952,19.4210,22.2037,29.7769,26.3397,26.1500,25.1757,28.9174,18.6578,19.4302,13.9855,19.6643,23.5505,9.1194,-3.4589,-5.2022,4.4631,-7.0091,-9.9288,-23.0351,-19.3952,-16.1151,-9.8476,-12.8317,0.0118,-0.4206,15.3332,27.8467,15.1052,4.1680,13.8142,7.3211,14.0011,16.2408,16.7426,12.5534,16.9926,5.7855,-0.3933,-1.1384,1.2727,-3.9872,-11.3809,-16.1204,-26.1136,-18.5658,-17.7131,-22.3231,-18.2996,-4.8994,-1.4403,-5.9737,5.1776,15.9855,20.0242,23.3117,14.1527,18.3709,36.7605,32.3793,28.4414,36.5841,37.8996,32.9335,33.0913,23.1050,10.1077,5.9821,0.8695,6.0162,-1.8188,-18.1498,-21.2046,-16.0709,-20.3444,1.1999,0.8636,3.1391,-6.0262,6.4961,9.2658,29.9397,32.2337,17.8972,29.2534,29.5678,26.1845,39.3432,45.4004,35.4670,33.0809,23.7500,33.9690,25.8312,26.3024,16.4406,12.6305,-3.7081,-8.2095,8.3695,12.2350,-8.8191,-20.6318,-8.0706,-11.9701,0.4217,0.2394,8.7132,3.2463,11.5497,29.8615,26.1162,23.5355,27.3281,25.1194,17.3017,2.3521,11.1716,14.8719,-1.8698,4.4863,3.0354,-0.0284,1.2698,-9.0092,4.0888,-3.8035,-5.7203,-4.4065,-5.6813,2.6074,12.5219,-6.1617,-2.8833,19.4371,15.3876,27.7843,23.9426,28.3345,34.8197,29.2249,24.7145,25.5502,28.1648,36.3495,31.9490,28.7562,21.6396,20.7726,23.8828,10.0372,6.8857,7.0015,-13.5212,-13.2279,-3.6814,-7.1492,-2.7961,-7.3376,-4.3345,-3.7012,-6.8728,10.5182,30.7101,40.4691,42.1442,23.9285,21.0692,8.2890,13.3552,30.4960,26.4430,20.3226,12.5785,10.3749,-12.5909,-19.4111,-8.0110,-9.8021,1.0466,4.5196,-4.5505,-6.4984,-21.0494,-21.1167,-20.0419,-12.3366,-17.9193,-12.0930,5.9265,4.0762,13.0365,22.8938,17.3155,9.8279,11.2864,24.5470,23.6800,15.5666,11.0830,7.7362,13.2695,-2.2424,3.4255,-4.9654,-13.9668,-4.9836,-13.1093,-19.0769,-20.7472,-10.7424,-18.8003,-10.0963,0.2642,6.7222,11.1508,15.2830,16.8711,16.1056,22.6651,33.0947,33.1716,33.3908,23.3102,27.9480,13.9969,9.2520,6.7514,5.4207,14.4789,14.2729,3.2071,4.2901,6.4207,4.5590,-12.8872,-11.3059,-11.0058,0.3421,-3.6847,-10.1699,15.5718,22.2252,25.9507,22.3997,12.6864,20.8500,25.1112,29.1854,45.0280,45.7603,40.0140,30.6232,25.9109,23.6038,22.2330,22.5678,27.9087,16.1663,21.3604,23.5781,20.4534,17.9248,11.4111,6.4935,1.3139,7.7224,17.9750,16.0923,21.8831,14.7810,21.3962,20.3034,23.6823,35.1524,41.0662,34.1997,44.2297,35.7304,22.5843,34.6657,18.2567,28.5865,19.0147,17.7859,14.7492,30.5212,25.4166,12.9877,12.7425,6.2279,2.6900,3.4915,12.0608,7.0171,10.0835,17.5347,15.6603,14.6642,33.9452,13.8587,15.8828,14.7841,18.2423,23.6423,31.0625,15.8677,25.3827,22.1960,36.8629,24.8375,17.8876,1.8312,-2.7847,-6.1481,-7.6786,-3.2489,-6.5397,-2.8962,-0.3180,3.8045,2.8660,14.5553,12.2409,9.1212,30.5832,38.6866,29.7638,36.1981,43.1202,42.6019,39.1490,52.8327,43.1761,47.7773,40.5561,31.6754,35.5239,37.9895,38.1581,30.5236,14.2073,17.6008,4.0896,11.8773,13.5051,10.8986,11.2135,-3.2082,9.9613,15.8207,25.3706,25.0529,38.0864,44.7309,46.3963,47.6087,50.5710,52.2987,42.1947,38.0454,33.4214,33.3384,28.8191,35.3686,37.9109,24.0323,15.0063,12.4143,5.3282,5.9164,-0.8762,11.9317,4.4615,12.9342,8.7327,19.0444,14.1911,15.4754,21.7926,24.5251,26.7976,33.4231,29.2098,35.4226,46.7700,41.5357,33.2613,35.2881,33.3286,32.9102,24.4340,22.0329,13.9965,8.3993,11.7222,8.3366,-1.8119,4.8667,-3.8427,-16.6292,-2.3029,-0.5331,6.2222,17.9021,18.0637,9.8009,23.8319,24.6688,38.2679,46.8862,35.2638,36.8762,41.5593,39.5762,30.9935,11.9910,5.3691,9.8415,-6.9328,-17.4030,-7.8579,-29.2292,-22.5274,-24.8949,-32.2817,-33.1000,-19.5515,-13.8632,-9.0314,-0.3917,3.3517,-3.2029,8.3793,21.4829,23.2515,6.8523,18.7329,21.0254,30.4784,24.9128,23.6627,21.1588,21.6183,27.4113,3.1055,10.4544,0.7337,-0.3000,-6.6751,-6.9629,3.6007,6.9142,-6.0133,-8.3064,-5.9077,-4.6257,-4.5132,-5.8933,-3.4064,-0.2339,3.8102,7.8309,13.6097,21.9946,39.5887,28.4593,36.1053,24.0509,28.7459,22.9355,21.0306,13.2142,5.0793,-5.1865,-1.8753,-5.2718,-13.7229,-19.4379,-9.9592,-13.6211,-12.5987,0.4086,-16.6756,-0.3555,-4.4413,-9.1401,-9.4302,-3.0642,-1.5723,5.4313,9.0156,14.1023,17.8348,5.7908,23.8485,24.4096,18.1711,28.2043,15.0574,2.4530,4.4784,2.8403,4.5445,-4.9010,-5.7245,-2.7374,-9.2678,-5.6628,-9.7593,-9.0807,-9.7521,-2.8192,13.4645,22.8467,37.6252,45.0864,47.0947,47.3107,43.9292,55.7151,53.0350,52.9115,41.3425,38.8994,30.0761,22.9056,4.6661,0.9391,7.7999,-4.2579,-1.8432,-8.0993,-10.4205,-18.7923,-15.0828,-4.2834,0.4537,3.9740,9.2229,3.0619,-1.4305,2.4745,19.1201,11.7884,15.2515,11.7453,17.3137,17.1347,29.7183,20.5642,22.4659,17.4209,25.7679,19.6384,28.0686,20.2586,10.3929,-4.0953,-0.1501,-3.9528,-26.7123,-15.7575,-10.5608,-7.6584,-4.1489,-8.7756,-13.2237,-8.3164,-7.3627,-2.0916,12.7985,22.2033,12.2636,17.1884,18.4452,25.4391,23.3538,23.8423,16.7593,19.8846,10.5647,11.9527,13.4607,14.1074,15.8148,7.8482,-0.6392,-1.0534,-0.1401,-12.7128,-2.7577,5.0403,0.9961,5.3652,8.0018,12.8333,15.2654,12.9458,26.9684,21.9918,16.6038,22.9756,22.3800,36.7791,21.7876,20.2264,20.5628,3.0481,6.8566,1.7897,6.7621,1.7011,-8.9461,-7.6792,-0.5555,-1.0188,-15.3399,-4.2098,-0.9425,-8.7065,5.3951,7.4087,12.0990,17.2018,20.7508,22.7729,38.4225,21.6911,27.6451,17.4852,19.5525,26.5181,26.0496,19.3652,6.8321,8.7120,11.7356,3.0023,1.8088,-7.1807,-14.7586,-18.3511,-33.2111,-37.4336,-20.3677,-18.6213,-12.2688,-8.8829,-7.7234,4.5146,3.1843,1.6704,0.7562,0.6243,13.2843,27.7807,20.2336,13.6872,8.1374,12.3104,13.4813,5.3669,-6.4956,-10.9785,-11.4881,-10.4957,-14.5037,-10.2618,-6.5479,-17.5890,-12.0053,-15.8354,-23.8208,-12.8623,-11.0161,-14.2380,-7.7346,-3.8239,0.3137,14.6027,16.0798,21.0975,12.0964,12.2244,30.9863,33.5146,12.0540,11.1204,17.4482,2.5473,-2.1933,-9.8830,-19.2891,-8.1548,-16.6947,-17.0612,-13.9624,-24.4456,-27.8842,-21.3615,-16.1861,-10.7624,-9.7069,-15.0812,-20.8422,0.2356,6.6712,13.9598,5.6682,11.6573,4.8788,21.5622,17.7724,18.9223,21.7023,11.8241,-0.3737,-0.2320,-1.8342,-8.0053,-3.9392,-1.3133,-14.5966,-21.9788,-16.6986,-27.2667,-16.6173,-15.9967,-15.8508,-3.9614,-4.3856,-6.2270,7.6470,24.1041,17.1674,15.8728,18.1411,17.9693,21.3039,24.1893,19.4513,1.3008,-4.9714,1.2978,-12.0780,-7.6695,-7.6323,-3.0994,-11.9837,-26.6077,-23.5432,-21.3716,-26.1406,-26.2428,-11.8393,-16.1294,-7.4539,-1.1308,4.6206,19.7821,13.6016,18.3239,14.9471,17.9663,31.8866,33.7132,24.2443,34.2229,29.1992,22.6215,28.7460,20.9274,9.7396,8.9344,9.7566,20.4462,11.9182,0.1661,-5.9447,-10.8186,-14.6829,-4.9709,-18.4156,-9.6254,-9.2458,6.9978,20.3181,17.3087,30.5208,40.4147,57.8642,48.5995,41.1195,41.0802,31.6529,18.7417,20.4188,21.8657,24.0914,11.7009,1.5251,9.3661,-7.1230,3.7700,14.6076,0.9445,6.9678,5.9624,1.6874,11.1844,16.6201,22.2926,20.9552,27.1861,24.3490,23.5267,33.4319,39.6925,35.0886,25.9054,33.7098,36.8369,32.5633,34.7584,31.1730,28.3901,11.5896,7.9578,11.0063,11.2566,6.7862,-16.1735,-0.4436,-0.2726,0.4730,-3.0197,2.1402,-1.1995,-7.8638,-13.5320,-10.2926,11.2740,9.7572,21.6684,23.5892,24.2865,24.7437,29.2661,13.4205,30.2833,25.5608,29.1341,18.0036,16.3233,6.1426,4.2531,-1.0671,4.9735,-18.5637,-18.5408,-20.7788,-22.1314,-7.6997,13.2999,7.4689,17.3381,9.6044,23.7251,22.0762,24.0810,28.8520,33.2311,49.9447,35.4378,37.1024,40.2250,30.4102,38.7476,21.3380,23.1686,5.6284,8.5133,10.0628,-5.2348,-10.1266,-8.3768,-11.1178,-24.5516,-13.8885,-14.1968,-18.4250,-5.2067,-13.5986,-10.2345,0.2489,20.2532,14.3437,25.8014,34.1346,24.4231,22.8191,20.9437,19.5916,10.4460,6.3553,7.9214,9.3786,8.0284,1.1115,5.2084,0.2175,-2.4142,-17.9397,-14.6295,-9.7055,-16.6173,-14.0009,-8.9136,-10.7747,0.6584,-1.3106,-3.7858,11.6380,15.9687,16.0790,19.8669,21.5338,25.3055,33.0289,28.1598,25.4530,14.7475,24.0664,16.3242,1.4164,-2.3158,-11.4989,-17.0842,-25.7755,-10.5359,-15.8718,-7.0994,-14.5194,-15.3196,-15.8227,-5.8791,-11.4932,-16.5561,-8.0951,1.2691,5.0681,13.9031,8.5054,18.2808,22.3742,34.3631,30.7948,25.4410,20.5107,19.9272,24.5028,17.9261,20.2122,12.3509,7.5312,-4.5812,-5.5626,0.7745,-1.0794,2.5744,-7.0478,8.8634,11.0647,5.2961,9.8092,19.8961,11.2566,26.2636,23.1039,28.4127,30.5517,39.5142,36.0751,43.8985,47.6270,35.2535,38.2970,35.0015,25.2460,20.5314,24.4476,25.2589,7.6229,1.5879,0.4636,4.9429,6.2193,2.8231,-4.7303,6.8556,6.2669,7.8460,17.1384,16.8494,30.1098,34.5276,36.1228,32.1651,39.7247,38.8196,43.9344,37.6981,38.1262,36.6104,33.3628,27.2652,26.0935,22.7731,12.0091,11.7079,8.1188,-2.5250,11.9291,4.1228,-7.3749,0.6183,0.5613,1.0323,7.4803,-12.8467,4.9162,12.8038,14.6314,24.6705,36.1703,37.8626,29.6985,45.8782,44.2280,51.5420,49.2874,30.5464,26.8239,32.6476,29.7331,34.2133,33.3006,18.9147,4.8907,1.6091,-2.7781,14.0117,13.3629,5.0809,22.6872,21.7652,34.0733,41.4251,46.8433,45.1992,40.1730,42.2383,47.4302,52.9294,55.8954,57.7144,56.7727,43.1621,35.9817,40.9063,30.6365,24.1976,21.4118,28.5024,10.4637,1.4224,2.1874,0.3790,6.7955,2.6025,11.5846,10.0622,6.8031,23.4073,38.4790,25.2199,26.6128,31.8100,38.7332,44.1311,49.3272,52.0938,40.5632,48.9966,58.9409,31.2838,41.0556,32.4726,20.8487,20.5688,30.2400,21.3518,25.4256,13.3599,19.1563,13.4068,13.9839,25.7599,32.2886,15.8770,15.1419,18.9977,16.9526,30.5954,17.6560,32.8774,44.4449,32.0604,40.1721,42.7539,28.5287,47.4271,43.6589,37.1642,33.4726,27.9451,22.6666,3.5163,-4.0225,12.5697,10.2467,6.4294,8.9504,-1.7639,5.5680,12.4219,12.5464,16.5838,2.9222,19.9826,33.3093,27.0762,25.1953,35.7417,43.8046,50.1594,45.4174,32.1065,39.1643,36.1065,34.3769,28.9029,28.0860,29.8662,20.3979,15.6311,2.5069,-2.3723,8.8196,17.9514,12.8467,1.1633,3.4889,14.7821,16.8082,7.0925,23.9253,31.1034,23.4124,22.5737,34.1706,26.9880,25.4490,34.0652,32.9488,32.3763,31.6746,26.5460,29.8411,21.9418,15.7751,13.0424,4.1344,1.8608,-7.9752,-4.3139,-18.6450,-18.4572,-16.2451,-2.8495,5.5483,2.3292,12.0999,20.9667,20.0324,32.3689,26.2165,28.4897,49.5195,36.6534,49.9375,38.7224,34.3329,27.6142,27.3334,16.2831,14.0423,10.8455,4.9464,7.0124,-6.6811,-10.9687,-9.8294,-16.1957,-24.4454,-20.3888,-25.1333,-6.8951,-6.1780,-4.2177,12.3052,19.9949,23.7667,25.4564,35.3150,24.8231,25.2737,32.3406,37.6999,34.5299,28.2749,16.4378,14.1832,18.9927,15.3501,8.5204,5.8795,-2.6153,-11.1793,0.0442,3.0315,-2.6804,9.2352,8.4471,9.8819,4.5350,-3.0395,14.5787,18.9665,18.9533,27.9742,32.9879,37.4348,37.5898,43.2693,49.2545,43.2911,37.7400,37.5625,27.9574,17.8013,9.0734,11.0803,-12.0305,-8.9607,-20.3662,-13.2232,-5.4260,-17.2619,-2.1084,4.3892,2.5357,7.0854,18.2652,6.9603,15.7963,18.5152,24.2016,20.4272,17.6233,22.6454,36.9983,37.1595,26.3570,27.8146,27.9227,28.4502,19.7372,18.6635,16.3452,12.0060,16.2974,13.3472,5.1651,-4.1746,5.9299,-1.0556,5.3970,2.2047,17.6048,9.9075,17.0199,24.7681,24.8945,26.4946,21.5380,25.8753,31.5659,42.6326,46.2792,44.5184,49.1412,36.2808,34.0624,27.6100,19.6527,18.3714,23.5955,17.6220,7.3276,-4.2955,-1.1179,-1.1465,1.0287,-5.7440,12.2089,5.1102,12.5942,11.1138,19.7006,23.6380,21.6445,35.9629,40.8350,36.5109,39.7710,40.2043,34.1191,37.6391,35.5895,36.8230,30.2902,17.5002,7.9777,9.7856,7.1137,8.2769,1.4107,6.1048,9.2074,2.0099,4.8900,5.7508,14.0890,19.5301,14.8894,25.1240,27.4464,18.7434,35.7160,36.8707,34.7704,39.2067,39.9604,42.2741,40.9268,34.5453,38.5576,39.7501,30.4852,17.0243,9.5271,13.1574,11.2883,-1.9892,6.5008,5.1840,4.9017,3.3782,5.5911,3.7751,11.7491,13.1303,14.6619,6.9420,9.8798,32.3641,30.2563,22.4845,32.4572,37.5847,39.1729,32.9634,40.7588,45.2864,38.0133,36.2543,14.1729,8.8352,6.3432,6.8895,13.2898,9.7432,3.8180,15.1140,-1.8942,1.1623,15.1016,11.1766,14.2976,17.3758,36.4811,31.2390,25.4957,32.6697,31.0465,37.7045,29.6624,32.7177,36.9288,24.6153,26.1018,29.1584,26.4219,20.4251,16.4611,16.5195,3.7814,2.3586,-5.3171,-6.0034,-5.4963,-19.7951,3.4148,-2.7125,-11.9629,-5.7374,-15.4155,-2.6426,15.5477,23.3537,24.0097,33.3577,33.6279,34.8951,43.4958,37.2205,26.4871,37.9393,41.8483,31.4159,30.5302,31.5525,24.1520,21.6660,5.0761,3.1355,3.4407,-9.4435,4.4589,-11.0861,3.0306,8.1143,13.5529,17.3685,15.3158,16.8011,27.7256,34.8588,29.5078,39.7616,32.3680,23.5946,27.9372,29.6468,28.0850,32.4865,30.1801,35.2769,31.5919,30.5646,22.4456,7.5640,12.6690,1.0291,0.2784,1.2694,4.0757,-5.4532,4.4580,7.8081,18.8465,13.8441,17.3345,20.7238,18.3383,19.0232,24.7058,25.1730,32.0518,38.2288,32.4053,26.1499,21.0580,19.7266,18.4269,9.5934,9.2938,-4.3781,-1.7869,4.1300,-8.1879,-14.7176,-6.5433,-2.8802,-1.6984,2.2298,6.0910,4.5652,20.6544,22.7656,19.9558,22.2172,24.9694,27.8261,20.0301,32.1024,19.0918,11.2561,14.2614,12.8479,22.5186,16.3969,-2.1767,-3.1311,10.0432,4.7186,-1.2251,-3.4079,-4.8187,-18.8196,-20.9203,-15.9833,-19.0759,-10.0274,3.3014,8.0073,19.2094,15.2469,14.0542,23.6964,24.5474,27.7295,31.8194,20.2910,17.6372,16.1618,20.3216,16.4915,14.2263,-3.3813,4.2653,9.6807,-0.3217,-7.3802,-11.9624,-16.9130,-8.0494,-16.4817,-19.1672,-21.2656,-18.8227,-4.8410,0.4852,5.8214,10.8810,8.6467,19.3670,15.0869,24.8669,31.0506,27.4527,11.3332,19.8836,0.7763,12.2044,18.0003,14.0777,11.7103,11.6912,9.4572,12.7760,-0.3429,-6.2016,-3.5568,-10.8909,-12.4871,-2.8148,-1.4426,2.9942,25.1816,29.0832,10.8319,11.9904,25.4764,25.5531,29.3245,32.6734,27.8756,24.1352,31.2165,40.9792,35.5297,29.3141,25.8427,21.9714,16.5918,13.2890,3.0850,-11.9682,-2.0743,9.8428,3.8201,8.2724,6.1179,18.8962,21.5458,19.5099,33.0294,42.0368,34.1778,41.0560,34.0991,31.8328,41.0001,29.6311,29.4688,35.9426,19.3258,10.0185,17.8732,9.2056,19.1843,24.3067,15.7356,0.5953,4.6319,-9.5692,-4.9443,-12.8136,-15.8969,-14.1288,7.6902,11.9424,21.3550,10.5553,13.6608,19.3819,29.9669,23.8055,30.5925,31.0646,31.1024,32.8488,29.5879,26.7283,21.2624,21.3825,0.8997,-14.1912,-21.6713,-18.8842,-14.2126,-14.5643,-14.6504,-28.9446,-26.0936,-14.3084,-18.8075,-17.3031,0.4749,-11.1269,0.8569,-9.5866,-5.0268,4.5325,17.4246,15.9064,21.4631,32.8209,36.5175,27.6879,28.5719,31.3854,25.8239,18.5253,12.4887,10.0398,-5.8957,-7.0835,-2.5352,-1.7618,-3.1648,-11.1500,-9.7239,-8.0150,-2.0448,1.8882,0.3387,3.3900,-0.3490,10.2355,2.9038,9.4410,13.7637,17.9471,14.6624,23.7452,21.6289,33.1091,23.6154,22.0664,17.9172,16.3400,17.9756,5.8081,0.1525,-11.8801,-1.7149,-3.4206,-5.2178,-9.2373,-3.9124,-2.7979,-11.2129,4.4975,16.8292,26.5015,24.1071,28.0720,27.3459,35.7892,39.3521,38.8770,44.4949,33.7621,34.7556,30.4981,29.3639,28.5545,14.8751,11.0305,32.6400,5.2971,-10.0309,-14.4898,-7.1867,-4.9928,-6.9585,3.4409,-4.2670,11.3050,16.6188,24.0608,16.7839,8.6933,18.8433,21.5218,25.3781,31.8275,30.4914,26.2733,26.6284,20.5708,8.8620,10.5311,13.2090,-0.9024,3.2795,-0.8773,-0.8560,0.6250,2.6091,-8.6199,-8.1154,-10.0197,-2.3757,4.7369,0.4224,0.3812,-2.8708,3.6776,2.9161,1.0768,16.7375,18.9126,20.7626,21.5063,8.7434,16.6932,21.9626,18.1555,18.4671,9.4850,12.7281,18.5700,-2.0424,4.1049,-2.1457,-10.6023,-3.1814,-18.8870,-15.3564,-20.1767,-28.3168,-16.5049,-3.3027,3.4093,9.3054,4.0753,25.0167,18.5184,28.4871,36.5335,22.0347,26.5854,25.9178,19.0999,18.3630,16.4135,9.2966,8.6646,-2.3653,4.0155,-1.4580,2.5356,-8.4533,-4.3308,-11.3565,-11.7241,-7.6431,-22.3593,-14.0735,-0.3257,0.1395,-2.4106,2.7031,0.0550,19.0445,7.3543,6.4170,11.1775,15.2145,16.9813,18.9430,24.6115,17.9308,3.8125,-3.3482,-13.7704,-2.7385,-11.6440,-10.7643,-19.8190,-18.8370,-2.5354,-10.1980,-15.7738,-13.3750,-8.9515,-12.2971,-15.5077,-21.7381,-10.1699,-3.2043,1.1053,9.4859,25.2040,22.1128,27.1161,19.1073,21.0568,22.1486,18.5158,29.3504,18.0704,4.3271,4.5380,-5.9087,-4.2645,-10.3589,-16.5581,-17.2291,-17.8928,-2.3324,-12.4908,-17.1068,-7.5392,-11.5169,5.4107,14.7826,26.1013,35.0972,30.0560,40.1032,26.3748,36.8054,31.2756,25.3190,18.7929,33.3829,22.5281,15.8013,12.3905,25.2084,11.3837,2.8121,-5.3315,-9.5893,-9.0326,-9.8857,-11.3840,-9.4146,6.2964,0.5522,1.8952,7.8884,5.6420,13.7356,11.3025,15.3778,25.7013,30.3515,23.3016,11.8241,27.1899,31.9404,19.6291,18.3780,16.5532,1.6929,-1.3064,3.6595,-8.7904,-18.5547,-16.1917,-23.7851,-17.4684,-23.7454,-21.5384,-12.8831,-8.9724,1.2471,7.7255,0.4830,10.7521,17.7387,23.6661,15.8886,28.1907,33.7256,24.1722,24.5100,22.8528,19.7975,22.4135,15.1308,4.8024,-3.6952,4.6091,-0.4702,4.4631,7.0458,0.2313,-1.4132,-7.1977,-11.5977,-16.5858,-10.3305,-7.0225,-10.5279,-8.3272,-0.5949,5.6646,16.3603,26.4340,22.3456,23.4354,19.7556,15.7751,15.3051,3.8458,7.3182,3.9303,-7.0373,-0.0388,-3.5186,-15.0280,-15.2579,-19.9647,-29.0389,-32.1887,-16.8682,-27.2569,-19.2083,-14.4859,-10.6404,-4.3694,-0.7436,-0.1691,14.2790,25.3452,20.3673,32.0781,25.9439,24.5360,23.4903,24.9675,21.5610,28.8592,21.5270,15.3688,1.4257,-0.2479,-5.6017,-13.1458,-27.3587,-13.4738,-8.8081,-6.0556,-14.9344,-12.9131,-9.7042,2.0986,8.4520,2.7319,0.4861,10.7897,19.9482,16.6193,26.1805,22.5145,20.8878,23.3321,23.4368,21.0469,24.7780,3.2783,-2.5982,-8.9008,0.4710,16.8887,6.0870,-1.7875,-10.9935,-9.7880,-11.6499,-9.7390,-17.0025,-1.8547,-11.2471,6.3569,7.2520,11.4587,10.1810,22.2024,19.7312,29.9496,28.6600,18.1164,28.2610,33.8690,30.3280,25.0970,25.2379,14.5073,5.7592,6.7682,-4.3312,0.9265,-7.2691,3.1905,-4.6994,1.8097,-4.6877,0.5507,7.3755,11.5263,5.9614,11.1057,11.4073,28.6761,29.9224,33.2607,22.7369,24.8332,31.7612,37.6975,32.6141,30.3484,28.5628,31.4721,29.6639,22.3362,24.1548,13.9829,16.8603,7.9469,3.0409,-11.3362,-0.3257,0.3841,-6.2956,-1.3036,5.3943,6.9823,2.9205,8.9940,15.3852,19.9269,42.5493,44.8829,45.0116,49.1639,34.1561,28.6206,31.9143,34.5705,27.7124,26.8738,16.7185,12.5968,16.6760,16.3505,16.6683,12.1050,17.6459,13.6286,15.6871,13.0113,15.0698,20.4423,23.6780,14.0167,22.6552,33.4736,29.7713,30.1707,46.4158,26.8102,26.0260,31.8774,39.4614,24.2583,27.5748,29.8360,32.7995,31.1649,27.2599,16.5220,18.1671,16.9431,9.9479,9.6009,8.7995,2.2100,-2.0913,5.7500,19.7736,25.8702,18.4696,23.5798,19.4217,27.5147,36.0467,27.5583,34.1045,38.4576,35.2964,42.0689,32.9362,31.1662,33.2211,22.7250,31.9900,19.7527,23.2818,14.8033,-1.0125,-3.1458,-4.8679,-4.7905,-10.0388,-13.8766,-9.3449,-3.9256,7.1081,8.8630,4.5041,16.1366,19.1643,15.7991,20.8454,22.0281,21.6106,25.2909,34.9367,25.2648,28.3786,21.9665,41.8986,38.2923,26.4109,24.5890,16.5565,20.1708,11.4368,11.2725,8.1650,16.5562,10.3373,17.5903,25.4100,13.0690,30.1697,41.0245,30.2317,25.7909,37.8995,43.8289,48.0200,42.4330,41.8017,51.0575,46.8054,44.7731,28.8450,21.5707,32.4990,25.8205,26.4471,10.8940,4.1097,-0.5434,-2.1315,-2.8509,-7.0225,15.0525,14.1556,12.7048,31.5858,30.0521,23.4583,23.0395,11.1909,25.3134,39.5376,43.4550,40.0408,47.2261,40.7771,42.2180,44.9423,44.1373,45.9923,44.0590,36.8291,26.9056,23.1632,18.3048,11.2758,9.3172,-11.0691,-1.7236,-10.0071,-0.8488,0.1152,2.7854,6.1173,12.1326,9.7761,14.7921,16.7456,18.7396,19.0510,44.0850,31.9501,33.0915,32.4602,36.9174,29.3350,32.6592,11.6999,5.1209,17.4835,3.0440,-4.6857,-2.4553,-7.4376,-23.2395,-14.5517,-15.7399,-14.7687,-16.8159,-4.0565,-0.5550,4.8139,16.0440,13.4494,19.5693,10.0595,13.7892,10.7358,20.4746,20.2468,16.7805,20.5418,23.0321,19.7179,13.0184,15.6992,12.3193,12.6534,20.7447,7.0870,5.3218,-5.0795,-8.9646,-5.5926,2.6300,-11.5974,0.7938,7.4781,2.7896,16.0038,12.9337,18.0917,14.6726,35.0711,50.1743,42.1822,33.5475,39.6121,36.0448,29.6110,29.6978,20.8383,14.7840,13.8744,11.2755,17.8917,10.0498,-4.3922,-8.1025,-8.2392,-0.1232,-1.0714,-1.0777,2.7283,10.3380,3.0557,7.9081,10.7964,22.8812,26.7308,18.2656,30.6865,28.6784,39.1101,39.2387,30.6600,34.9739,37.7944,40.5351,41.1681,32.2502,29.0964,23.4264,22.6476,15.9985,0.5283,3.7379,9.7251,10.4196,14.4281,18.8761,28.7349,20.4268,26.2405,19.1448,24.7849,32.0210,35.8145,43.3746,32.4406,25.4215,21.4250,18.1245,17.2372,28.1920,15.2276,12.8479,18.7347,4.2685,-4.7608,4.1204,5.0764,-3.9466,5.3679,-3.1484,11.4710,14.9996,13.6574,18.9121,13.8971,9.6475,24.2022,32.4752,28.8757,29.8316,29.8964,32.3101,38.2651,39.9759,34.4989,37.3762,36.3287,25.0189,28.4982,25.0402,11.5602,4.9885,1.6019,3.3346,3.5943,2.9279,-9.1211,-7.9458,-5.0833,7.6905,6.9305,11.5399,18.0202,9.9940,4.6970,21.4505,20.5599,32.0443,37.4273,36.2207,49.2947,35.9691,32.0072,21.6200,22.4574,13.3198,4.4776,-6.3522,-9.1103,-0.9918,0.4940,-2.3775,-4.1584,-12.5073,-4.1001,-1.0880,-2.8211,-5.0043,-0.6275,-0.8989,2.1099,6.8709,11.7291,10.1846,17.3656,38.4738,32.4672,24.4531,24.1441,23.7129,19.2271,26.2813,32.0753,21.2306,25.2121,29.4316,13.3316,6.2491,4.2962,-2.0139,-7.3134,-3.1143,-9.5197,-10.8436,-9.0613,-2.2211,-9.3476,-3.1851,-0.9103,14.4681,19.5002,10.0192,31.0996,32.0939,25.3826,28.6866,35.3553,37.6873,29.4013,24.0927,29.8734,15.5605,17.3028,7.5550,-8.6557,-7.2604,-11.3261,-7.7602,-17.5766,-9.9307,-18.7421,-9.9021,-2.0939,2.6637,9.5213,19.8204,20.0373,21.9118,32.0744,29.3960,37.6895,41.0591,35.9506,23.1404,21.7156,11.8360,13.6553,0.3863,-0.1496,2.8514,-5.7717,-6.9074,-7.1419,0.1671,-6.0620,-8.2588,-5.0954,-4.4709,-5.1170,-10.7902,-19.7548,-9.9167,11.8058,20.0577,24.9628,26.8562,33.2955,27.7846,24.1891,21.7743,22.9632,28.7440,31.1294,33.3769,33.2780,25.5048,19.0573,16.5835,11.8774,13.1541,5.5444,-4.5469,0.7505,2.5925,5.3187,13.2008,9.4787,15.3536,8.0482,16.1851,22.1526,19.5627,28.8577,18.2116,20.5031,30.1280,26.9157,26.0484,39.8831,16.5106,18.9150,6.3929,5.4163,4.2237,-1.8576,0.6186,-12.7587,-10.6554,-15.9169,-24.6769,-13.3722,-18.8351,-12.1013,-15.4561,-2.6459,4.7089,-3.5353,5.9706,3.2547,16.1290,12.5980,20.0196,22.1804,25.2598,28.9559,17.2663,20.0570,18.2137,10.0656,-3.0273,1.0099,5.4351,4.4021,-5.7655,-11.9945,-8.1620,-15.4251,-19.1872,-16.6686,-11.7507,-12.1230,-4.8424,1.1452,7.8558,-0.0732,12.1561,19.6728,16.6593,24.2954,37.1879,23.3757,27.6553,33.1124,18.8613,28.2186,10.3531,-2.2149,3.3666,1.3234,-3.3643,-7.1495,-7.5507,-6.6177,-4.3870,-4.1897,-27.2995,-11.8668,-7.6361,-14.8091,-15.3640,0.7740,7.8140,12.4581,21.8162,21.9916,21.1693,25.5206,27.6326,24.3270,18.4370,15.6827,6.0892,12.9562,15.4872,31.7298,12.9085,17.8317,13.8644,-3.0178,-4.4993,1.3751,4.3093,5.4456,0.4895,12.0677,4.8303,2.3934,15.6827,6.9382,23.3566,36.0832,35.1910,36.8311,22.7812,24.6142,31.9488,32.2299,28.1413,23.3204,34.8394,27.1160,37.6954,32.0262,17.2580,12.9296,6.6070,0.2257,-1.6106,-17.7223,-6.9529,-6.1903,-7.2011,-13.4590,0.4142,2.5707,0.1285,20.1557,9.3638,17.4987,22.8416,15.9876,24.8626,26.0983,12.8497,16.6962,36.9527,35.1146,25.0255,17.8017,13.3057,14.6627,16.0848,15.2283,22.5250,27.4815,11.8204,2.4582,-2.1948,4.4188,-0.5279,6.9729,-2.9074,5.4149,8.1014,22.9948,31.4184,39.8442,38.0903,34.6530,30.5071,37.4877,25.4643,34.5510,20.3487,29.2636,22.3337,9.5587,-3.5501,3.5992,-4.7954,-12.1110,-4.2344,-2.0732,-1.1070,-2.4711,2.7598,3.4181,-1.2209,8.1281,5.7135,0.3958,18.8084,25.7500,19.7370,30.7844,41.4121,36.4392,31.6688,35.8784,25.9473,15.6162,19.5633,42.6390,29.2270,27.3662,33.6156,9.8905,8.3964,-1.6704,-5.2256,5.5494,-3.6521,12.6529,7.4866,-0.8694,11.5553,13.3794,25.9887,28.0298,31.7539,32.9419,39.1311,33.0069,40.1910,34.8998,31.9425,43.0237,32.8510,39.8713,33.2344,21.2568,10.3681,4.6576,3.3420,6.8729,6.9677,2.5676,-5.1066,8.7621,20.6769,21.9513,28.4698,22.1514,28.8798,33.6344,38.5644,43.4331,41.5596,48.2054,43.2563,54.3939,53.7318,41.7955,38.4923,26.5534,32.3028,8.5525,12.3456,11.4504,24.3243,12.7440,15.4959,21.2704,16.6431,11.2978,-0.3806,8.4577,19.8814,16.6820,11.7905,16.2439,16.5417,30.1571,28.9638,23.8027,33.7974,39.0962,40.9606,43.2523,33.0353,36.6418,46.0217,45.3061,25.6049,31.9768,33.0229,25.6778,25.4470,27.1751,8.3004,6.7133,10.0178,9.1987,10.1281,16.0604,17.7569,10.7836,34.4309,37.2612,44.1024,52.3966,56.9865,61.2793,63.3746,54.7238,52.7338,51.4952,61.6287,60.5233,51.8038,47.6687,41.8882,38.9670,33.1889,29.4060,19.9889,18.4035,12.3118,20.8075,27.6505,28.2621,23.0764,19.9633,13.2735,13.7100,14.2725,14.4971,24.8905,40.1198,38.3802,39.2203,36.8104,43.9192,41.9248,46.4197,34.3692,37.8074,43.8846,21.4429,25.9915,23.7796,16.4148,14.9586,11.3049,5.4851,-1.7635,-1.4039,-0.8533,4.7960,-2.9465,0.9274,15.2944,21.5619,25.0571,32.5759,33.7641,45.7383,43.7731,38.5477,49.4138,47.2960,33.1335,34.2040,26.6322,36.4518,28.7263,18.5938,15.6311,10.5179,16.0136,-0.6944,-7.9086,-1.8972,8.4795,-0.6073,8.4957,16.0135,-0.3485,5.1807,13.6356,28.0395,31.3360,27.9147,43.3890,31.0913,35.7512,39.0805,32.8020,38.3832,32.5986,29.2713,36.0911,21.4908,24.4116,19.9513,21.8423,16.4306,12.5917,7.6758,5.1525,-1.5664,-1.5884,3.1896,7.1236,1.4363,5.2670,8.0464,3.7807,19.8522,37.2703,42.9099,41.0321,38.9649,35.8508,29.3417,33.4725,32.4534,42.2227,42.4016,33.9816,18.9325,23.0178,14.6606,22.6668,18.0228,12.7182,17.0755,15.5605,21.2321,18.6521,14.7719,19.5709,15.3223,16.3542,22.5608,24.2755,35.5615,23.2832,25.9647,27.2755,34.3819,36.8000,40.3996,43.6330,40.9039,27.0284,26.8586,6.9336,7.4703,4.6749,6.3678,1.2619,-2.8408,-5.3213,-3.1783,12.4502,29.6875,11.4100,7.6384,12.4947,27.2176,18.4010,28.4244,38.0592,38.6007,40.0981,42.6139,42.2123,48.2392,46.7699,50.3405,44.8368,37.6922,27.5408,27.1712,25.6578,27.8007,31.9990,28.8351,13.2843,4.8437,-6.9517,2.3773,-3.9656,2.8517,17.0127,13.3118,21.3929,19.2039,18.9905,28.6291,35.9390,49.9770,46.3833,49.7685,48.0989,46.7043,37.0869,39.6788,28.6180,32.3057,35.9864,32.6620,27.7586,21.9642,22.9236,13.3868,16.3934,18.2194,29.4359,25.6418,30.4669,20.3131,30.1740,41.2872,28.4384,24.6840,31.7719,36.0048,53.4474,67.5437,57.6296,54.1196,55.0962,57.9911,69.1231,54.2544,54.3010,45.0660,37.9507,34.4090,22.3291,27.9604,19.8178,17.6566,12.8580,0.9490,10.1428,12.9727,24.7695,13.8782,19.2752,21.4073,37.0094,29.2416,42.4420,50.8880,53.7614,56.9987,59.9278,57.1061,61.4023,58.5525,49.8504,50.2080,55.2020,51.4969,47.8155,40.8430,42.1583,38.6932,15.2845,24.7958,18.7677,17.8084,17.7054,18.2669,21.1772,19.0905,20.7426,19.0701,24.1463,29.8990,32.1849,29.9837,38.4157,51.0783,37.3559,44.5968,43.2516,50.7860,48.9226,39.8684,33.1166,28.6254,21.7746,34.7988,27.0421,9.2320,17.1601,13.7446,10.5750,10.5403,20.0455,20.9508,25.2482,20.1593,27.6074,37.6629,38.2858,38.4871,39.2255,49.0128,57.2550,44.8600,45.0228,37.1906,27.1603,29.7456,34.6028,30.6360,29.2986,18.0780,26.7590,16.4994,11.9987,11.0140,12.7119,2.3663,1.5917,3.6361,1.5056,12.3808,7.7767,11.6865,29.2587,11.6769,20.8640,28.7168,43.2923,48.6323,23.0453,39.0088,33.1449,31.8553,23.5133,17.3444,16.2292,14.8027,26.2294,20.6013,3.6416,7.9435,-4.5297,6.5529,0.4824,-0.4618,1.1141,12.1340,5.5832,8.2266,3.6920,11.7715,24.9379,24.9612,38.5365,35.6002,31.8945,46.8580,37.4044,39.0576,39.9573,23.5520,23.3690,18.8973,12.7574,9.7434,7.0114,8.5233,5.4551,-0.4774,-2.1487,-1.7733,-2.1119,0.3794,-4.1994,6.1360,11.6144,4.9386,3.3269,29.7016,42.9578,35.5977,31.5328,32.7890,24.1166,38.5428,26.5278,21.3375,22.0320,29.0730,26.0044,18.1548,19.7152,11.1883,11.1614,11.5817,10.2632,-6.2350,7.0681,0.8293,-1.7018,-11.6370,-10.5948,2.3743,9.7643,20.1467,28.9067,28.3424,26.9802,41.5991,49.1507,43.3227,30.3359,32.0861,38.9857,28.5687,31.1363,31.8039,29.6523,33.2842,22.8634,23.2283,7.8658,1.9794,6.3689,2.6616,7.8203,4.3372,15.9246,11.9896,18.4214,32.4108,34.1257,28.4602,37.1753,39.3626,38.2116,50.1370,49.8766,44.5180,33.4787,26.2124,37.1366,27.8347,41.9846,34.5460,25.0464,10.9368,5.1614,6.9773,2.2694,3.3326,-6.8450,0.3747,12.1006,19.9133,12.4830,15.5401,5.1442,15.2582,22.7328,28.8955,35.1091,46.2976,37.6115,40.0748,41.8609,45.9530,47.2452,43.4537,41.1703,29.5724,42.0013,43.4605,39.8206,42.3807,31.8604,31.2270,25.8190,12.6008,14.2174,8.8475,1.8875,26.4036,37.3965,27.2179,45.2231,57.1401,50.8251,55.2888,49.1291,70.2127,59.8178,59.5198,55.5501,62.6328,62.1056,61.8968,52.9979,46.7410,55.1972,51.0244,36.7666,28.0671,21.3858,22.8992,13.5330,9.5867,23.3741,19.9913,28.6418,19.7440,20.7813,18.6820,34.1881,23.2025,20.8958,30.2736,38.6979,40.0021,46.3240,33.3189,34.6501,37.2429,50.5174,44.2488,34.7840,36.1815,23.7255,15.8857,30.5930,28.4585,37.2470,33.4375,20.2943,19.1040,10.0713,6.8626,14.1390,23.1506,20.5261,41.0901,29.8658,38.8778,45.4132,35.3677,58.3057,59.0375,44.5674,65.2820,54.3856,52.0972,60.5644,47.7528,35.8751,37.0565,31.7593,21.6358,15.2160,17.0874,17.8741,24.1404,25.2278,21.9320,15.8383,14.3881,25.2459,24.0304,18.0414,26.6495,21.4588,35.4474,24.8189,26.7105,49.6020,43.2354,46.5707,43.7309,46.3048,36.7348,30.8522,25.0075,24.9071,29.0345,21.9120,16.2519,4.1928,8.4603,-3.5331,-13.7341,2.8914,7.8630,3.2807,10.7841,10.3930,23.1688,37.4485,32.7839,23.3002,34.0727,38.4243,40.9438,33.5492,31.1957,30.0811,32.4498,20.1861,30.8825,25.0003,21.9052,13.6098,-6.7751,5.3952,-9.4692,-9.5947,-7.0699,-15.7589,-13.9336,0.4279,-3.0959,11.0451,7.9570,7.3752,18.5769,6.5475,10.0618,17.9501,26.2563,23.3069,26.7700,23.3294,29.2292,28.9773,29.2246,21.4068,21.8447,22.4542,5.1010,6.8350,-1.6138,-5.7587,-7.4134,-7.8192,2.1993,-3.1847,-13.4866,-11.5032,1.7413,-0.1954,-4.0000,3.9216,23.2306,26.0995,23.9147,25.2138,28.7103,38.3159,39.1303,39.1874,42.4884,34.0595,15.7544,22.8639,16.7948,11.5019,20.6920,16.1098,2.8804,-1.1019,-10.9449,-16.4472,-8.7046,-18.4837,-16.7648,-16.3427,-1.6645,-7.8919,3.5828,4.1044,12.3269,6.5439,2.2082,-0.0697,9.9502,4.8687,10.7740,-0.1892,7.0800,1.7558,-10.3489,-2.8696,6.6874,-6.3911,-19.9177,-21.0306,-12.2407,-8.9161,7.3829,-6.1835,-4.4634,-14.8471,-7.5479,-10.3313,2.3807,3.6718,10.0645,19.8913,15.9892,20.1060,19.3980,21.8568,28.8561,24.0299,29.3409,16.5020,16.8891,23.0639,9.7973,13.7648,7.4902,-4.7253,-3.4089,-12.3526,-5.0852,-1.5224,0.9670,-10.2150,-11.8514,-13.6385,-1.2992,5.8285,0.6306,12.1167,20.9165,13.4190,7.2866,18.2737,10.9026,13.0343,18.6939,15.8860,19.4824,27.4281,13.5278,6.6836,9.8552,7.9482,-6.1067,-7.8373,3.0267,-10.3311,-1.6349,-1.8946,-11.2254,-18.2312,-8.4526,-9.6700,-13.8756,0.4438,0.9916,15.2831,12.1170,14.0557,10.4651,19.6861,18.4713,11.3317,24.0460,11.5993,9.0234,11.5529,7.2883,2.5322,0.6394,-13.6599,-11.5670,-10.7859,-24.8428,-6.3957,-10.3835,-5.6319,-6.3298,-8.7120,1.0975,-8.6591,-0.9037,10.1651,-4.7067,13.4119,10.0357,11.0660,18.6575,19.5546,20.7705,-2.5468,1.5703,10.4031,11.6844,3.1868,-2.5399,-8.5614,-13.3346,-29.9030,-30.3651,-39.9884,-56.1561,-45.5524,-39.5939,-26.9530,-18.9104,-19.2119,-3.3095,-1.6863,-3.8482,5.0963,8.5567,-3.5221,8.0301,-2.8784,4.7010,17.3172,17.5718,7.6948,7.1823,-6.7487,-10.8189,-11.6982,-16.0604,-15.0733,-25.6552,-27.5995,-12.5726,-14.7209,-11.3550,-17.5956,-31.7594,-32.1874,-21.0810,-15.7416,-8.4500,-12.1636,3.2484,-2.1371,-10.9540,-3.3887,-1.1951,14.7287,5.9263,21.3119,13.1482,0.4682,-13.7118,-5.8852,-11.9867,-13.1231,-12.6666,-20.2888,-34.0328,-26.5170,-31.4210,-38.0061,-37.6604,-36.8617,-30.1856,-35.7792,-24.5779,-21.0440,-6.9977,-3.1804,-3.3255,7.5160,4.3501,-5.6971,13.4433,16.5950,16.9267,31.6963,21.5473,1.1996,-7.0034,-1.7808,-1.9980,-6.1622,-11.4351,-17.3971,-25.0500,-34.1431,-33.9639,-24.8298,-17.9678,-23.8695,-22.7685,-15.4438,-10.5435,-6.2534,0.6785,-12.3628,-5.5112,10.9969,6.6029,6.0362,12.7446,0.8608,-0.6908,3.6066,16.2062,4.2606,8.8114,11.5409,6.2118,-3.4313,-12.1455,-22.4683,-32.1514,-39.7146,-33.9387,-23.6573,-19.5938,-20.1258,-17.3615,-8.4158,-17.2294,-2.4833,1.5684,-7.3314,-2.5786,5.6653,5.4435,19.8325,11.1105,4.0151,2.2307,-0.0831,10.0978,-7.8776,-2.4995,-6.5526,-7.0676,-18.8743,-19.0957,-20.2862,-27.5860,-15.4964,-18.7666,-26.7457,-31.6263,-28.7913,-24.8702,-23.3977,-5.7899,-8.7422,2.9688,11.0567,11.7933,8.3784,22.0399,8.3942,7.5742,16.8741,16.2189,9.8426,11.6885,18.7097,24.6467,10.2920,3.6529,3.4518,-4.9393,-9.7069,-9.9115,-13.4639,-14.8860,-7.5848,-7.5254,2.6057,-2.9043,-3.7402,1.0681,9.0992,13.7929,20.7645,20.2874,30.1592,23.4276,20.1663,19.0199,17.0508,11.2812,15.0516,-4.7284,-2.8431,-12.6300,-31.2763,-29.4061,-25.0850,-20.0942,-33.5388,-40.5068,-33.9425,-25.1075,-18.5826,-5.5333,6.1503,11.4678,16.3438,3.4160,4.1147,18.0085,14.2166,13.9853,16.7880,26.9829,17.1518,8.6837,0.2986,14.4721,0.3947,2.1547,-0.9795,1.1979,-8.6632,-0.0258,-11.7707,-20.2687,-16.7904,-15.3762,-11.0641,11.4440,2.7940,0.0291,13.6236,19.8078,15.7156,17.4533,29.1822,34.9362,25.9334,21.9075,28.2086,30.6184,19.6358,19.2452,13.3201,11.3749,1.3404,-7.8290,-9.4877,-15.5980,-35.9087,-36.7694,-33.7104,-34.1919,-22.5726,-22.0987,-15.6844,-9.5610,-15.8954,-2.1324,2.2596,9.6841,-7.4927,-0.7643,-1.7339,-3.0516,-2.5870,-0.9379,3.7040,1.9920,1.6173,11.5682,16.5177,6.4071,-12.8128,-18.8664,-6.2896,-4.7537,-25.0273,-21.9505,-23.9543,-20.0764,-12.0207,-10.5705,-13.5114,-8.7028,-2.6630,0.5434,0.7045,-3.8549,10.3098,11.0426,8.5996,13.9108,16.0806,14.2170,16.5079,-8.4165,2.0695,-5.9117,-25.2749,-20.1645,-16.3114,-32.7462,-38.0777,-39.7136,-34.1799,-29.8280,-24.6704,-28.6693,-26.6793,-19.6964,-13.4689,-11.1479,-10.2133,-10.0556,-13.9751,-4.1668,5.6413,-2.5908,-5.5181,-5.2168,8.4498,4.2811,-1.1293,-0.0397,-3.5395,-11.1530,-26.7176,-39.9477,-26.1166,-19.1020,-23.3493,-24.0156,-30.8371,-20.1993,-12.6569,-17.3148,-4.0098,-11.7367,-1.3362,7.3605,12.8282,15.7845,24.2417,20.3645,11.9774,6.2395,2.3476,13.8501,15.8711,5.2778,6.0131,1.2172,-10.0572,-4.6171,-6.1396,-7.9845,-36.8020,-30.4634,-32.7522,-33.2874,-31.7825,-27.1189,-24.4390,-15.1529,-11.1649,-3.1993,-0.5275,-2.6699,8.5022,16.6402,12.0487,17.2956,19.3619,11.7837,14.3393,11.8012,11.6029,15.5879,5.8525,14.7223,2.2844,-7.6677,-19.1618,-17.8158,-17.9273,-16.6637,-20.8335,-12.0429,-10.5860,-13.2915,-18.7783,-16.4487,-21.8440,-13.7956,1.9457,-0.7901,3.7133,5.0568,5.2217,-2.7080,0.5429,14.8700,14.1181,8.5067,3.2734,-0.5745,-9.1955,-10.5897,-17.5488,-9.8352,-15.4955,-23.6299,-25.1315,-25.7098,-27.5451,-18.8602,-17.8125,-18.6100,-9.8907,3.1487,-5.0993,-12.9291,-11.4340,-0.5884,6.2244,6.1859,8.7117,7.7940,9.4137,20.1706,17.3588,16.4500,16.6377,6.8593,1.3534,-9.0657,2.9339,-7.1214,-13.9376,-23.8240,-21.9816,-19.2551,-10.6056,-9.5161,-13.0845,-4.0783,-1.7684,-8.8192,2.3410,20.5424,19.6339,31.2312,29.0107,24.4646,27.9714,32.6408,25.8334,32.7356,31.7462,26.1407,6.4345,8.0025,0.9531,-5.9750,-0.2054,-16.4916,-18.7696,-19.1964,-20.9676,-16.8088,-22.1320,-18.8998,-17.4305,-27.2404,4.2336,6.0535,-2.6068,8.0845,11.1144,22.0858,19.1619,8.2014,12.9136,17.2738,8.4357,8.5312,8.1464,-5.8102,6.3389,2.7679,-17.8131,-14.3753,-24.3272,-13.5539,-21.4033,-23.3231,-15.6713,-25.8411,-18.8238,-1.4141,14.2459,17.3183,15.6739,12.0002,3.4294,12.1886,11.1992,25.4075,31.9923,21.0137,25.9746,22.5669,19.7202,34.8213,5.6647,-1.7089,1.4704,9.6343,5.6274,-2.5377,2.1066,-10.6422,-12.0907,-18.0278,-20.8887,-19.4877,-23.2169,-17.9352,-14.4350,-10.5833,-2.7908,-1.4421,3.4833,2.4651,-4.6815,5.1410,12.8189,24.1960,10.6233,11.0874,-5.2657,2.4034,0.3084,-12.0631,-18.5074,-20.5650,-13.9805,-14.5384,-16.0022,-18.6158,-38.6998,-50.2783,-44.9680,-32.8074,-27.6997,-13.9248,-1.9059,9.3280,10.4060,3.8514,14.6791,15.8092,9.3675,-1.2861,-0.2949,5.1766,8.0741,3.0162,-8.2816,-15.6240,-9.3804,-13.9947,-20.9971,-17.1133,-19.1600,-12.9210,-17.8748,-3.4496,-8.0702,-17.1106,-6.5256,-6.7286,5.0951,9.4571,1.5941,5.5752,15.0565,18.3806,12.7171,19.9110,24.0667,17.4188,17.4897,11.5878,1.7550,11.5419,10.1449,-0.4406,-1.9835,-9.8923,-8.0412,-13.2114,-12.9771,-7.7631,-21.7565,-14.1892,-6.4467,-8.4541,-10.2336,-10.4042,-10.1132,2.2249,5.5410,-9.4140,4.8271,18.7600,14.3174,16.3331,10.8469,9.7703,16.1012,15.1641,23.0031,23.0532,8.0222,4.2174,-1.9778,11.4591,7.1578,3.5167,-6.0430,-6.1255,-12.9114,-1.1015,-9.9401,1.1279,4.6113,11.8412,21.1772,16.5368,22.4882,21.6482,25.3371,23.0265,25.8250,23.1226,22.3469,24.6264,19.9686,18.4703,27.5173,14.2168,2.5075,1.3934,10.4535,10.4845,8.0743,4.6695,-3.0824,-7.7685,-2.1174,-7.0209,0.3115,8.0190,6.4908,5.2296,12.4305,24.1508,31.9520,35.6270,19.0078,20.6989,26.6795,26.8270,39.6150,22.5523,23.1698,14.9858,6.5821,7.4572,1.6010,4.6511,-0.6309,-11.9545,-11.7954,-15.4612,2.9612,0.1514,-5.7851,-8.7747,-11.9432,6.7294,15.5624,21.4217,22.1235,25.5304,34.8566,38.2242,35.3309,17.6284,17.1584,15.3893,13.5974,17.8218,21.1782,17.2085,6.9887,13.3160,1.9640,-5.2956,-15.0618,-2.2145,-12.0488,-16.3160,-2.9167,-8.1818,-11.0696,-12.7423,-15.8213,3.5858,15.0511,21.8309,29.6199,35.4239,36.0621,16.5546,12.1065,18.7947,5.7234,4.4479,5.4236,3.9862,5.7068,0.0087,6.1302,-6.2699,-14.4978,-8.7512,-15.8055,-26.6807,-24.4469,-22.4385,-22.2482,-22.9977,-14.4398,-4.4013,17.1789,14.6478,24.1810,33.8861,31.1833,32.6885,36.6840,27.5957,33.2509,23.7638,20.9363,23.5518,24.5668,27.4673,16.4993,18.4758,13.6200,0.4158,4.9632,6.0111,4.5882,0.5797,-0.2225,-5.6134,0.6731,19.7122,19.2770,19.5511,24.0744,24.4417,34.2366,25.3553,32.1158,28.7292,31.6383,32.3483,48.9585,48.3820,41.9040,40.7797,21.3730,8.2325,8.2356,0.6726,-0.7409,-1.9207,5.9134,-3.0938,-7.8253,-1.6789,7.3741,1.1908,6.4229,15.7114,10.6786,21.9077,24.1338,29.2972,32.1556,33.6836,30.6470,38.0195,45.7127,36.9709,36.2882,31.1650,23.0204,31.4511,13.7913,21.0392,19.8282,12.7030,8.1022,-4.4794,-2.8696,12.9319,4.2640,7.4187,9.9204,-8.6279,-4.2321,9.8004,-1.0053,14.9812,21.8311,16.1777,22.8698,26.9321,28.5550,28.0475,26.3961,31.8146,31.5080,25.4644,17.8260,13.5736,11.9221,9.9287,11.1643,16.5949,10.1361,-8.0161,-8.6173,-11.3320,-7.1943,-3.7429,2.1113,-1.5746,7.6140,16.6855,14.9323,17.7590,6.9252,6.7193,18.2141,23.3747,17.7776,22.3892,27.8630,29.0407,20.2880,33.0672,14.8710,10.9156,14.2134,-4.0529,-0.7487,2.9716,-4.6956,-4.1840,-8.7565,-10.0970,-3.7249,-3.4002,-3.2171,-3.6223,14.5418,-0.3650,-4.3905,3.0155,1.8651,7.5961,17.1311,15.2139,25.4788,16.3785,11.3098,18.1131,8.2907,5.5333,-1.5686,-4.1644,-4.6781,-15.9070,5.4786,-13.9711,-12.0862,-18.7344,-11.4476,-1.5451,12.8648,3.6333,2.6347,4.4332,13.4762,13.1880,7.0055,13.3730,18.5322,20.3699,18.0426,25.0639,33.5999,39.7029,30.1308,25.5488,24.2102,12.2900,11.7932,23.9249,9.4784,-7.4208,2.2740,3.7076,-5.5694,-3.4225,7.4226,-0.1134,0.6520,11.7730,6.9909,5.9368,18.2737,25.1362,33.7946,34.6063,51.5813,26.8213,15.6229,28.3459,23.1431,31.4879,25.2343,17.3045,17.4593,1.2661,6.8030,6.3609,0.8504,3.2448,4.5390,0.8359,-0.4577,10.8168,0.5493,15.9305,21.2262,6.7598,17.9920,24.3507,27.6900,23.7153,21.3675,24.0815,9.2414,23.4130,32.0703,29.7728,17.8869,21.5517,24.4922,14.0697,9.8630,-5.0394,-5.7946,-0.4423,2.6197,6.8305,-0.1218,-13.8009,-9.7265,-13.6217,-10.5768,-4.5546,-3.4325,0.6492,15.1915,14.2478,28.2770,33.9326,35.0227,31.8470,32.2085,23.9040,26.8634,23.4637,14.0256,16.3281,19.5418,10.2051,2.0743,1.9545,-9.7029,-5.5237,-5.0663,-11.3861,3.1559,1.5615,-0.7950,2.3803,-4.9229,5.1208,30.6215,24.8806,11.7086,30.8493,30.6329,28.9616,27.6856,22.0947,13.4216,21.8730,32.1592,20.5986,23.2880,24.8486,15.3327,1.4264,-8.2799,-7.2581,1.8227,-1.9838,-2.4452,-1.5402,-14.8944,-18.4589,-12.0405,0.5588,-4.7479,2.9809,11.2259,24.9308,25.9931,21.3650,31.7771,31.0572,24.6851,35.0950,22.2964,23.8918,28.0039,19.4365,24.6041,21.7530,11.2083,12.5857,16.1550,-0.3033,-6.2570,-3.5534,-13.7091,-15.6487,-12.3675,-15.3702,-11.9671,1.7665,6.1227,12.7152,17.5762,13.0911,25.1967,32.6727,41.5049,36.7854,19.5928,26.5163,29.7502,23.1709,24.3263,22.5787,1.0682,4.2387,-8.0898,-3.1876,4.1665,3.6952,-1.4820,-4.7651,3.1341,5.3514,-4.1907,-6.3272,1.2575,1.8830,15.6776,28.3918,24.8963,28.5207,28.6238,23.4729,24.5648,26.3428,23.5140,19.2423,7.6284,13.7956,17.0485,14.3792,3.5901,-4.1134,-5.2074,-16.3085,-16.4086,-24.9738,-15.0949,-32.3424,-28.4095,-17.9295,-14.8627,-5.0439,-0.8468,-3.5069,-0.1084,4.8794,9.7790,10.0059,17.2657,15.1374,23.4384,21.7572,27.5169,24.2725,13.7778,4.1511,1.5687,-0.0377,-8.4075,-9.6157,-18.1419,-20.9123,-28.8680,-11.0759,-3.4037,-2.8746,-13.6185,12.1548,14.2254,21.1635,20.3705,18.9657,12.1837,7.9556,21.4657,26.8614,32.3652,26.5202,41.2217,23.0941,25.8383,20.6746,14.2482,26.6828,16.6602,4.2811,9.1588,-8.0484,-21.1291,-16.3228,-11.8871,-9.8486,-4.7862,-3.4573,4.6802,-3.6345,-6.8008,-2.3042,0.6406,13.9836,27.0951,33.4274,32.9637,32.1022,29.7346,43.7739,33.4545,39.7800,32.0672,33.2068,21.4327,14.9386,14.5400,21.7216,17.6079,0.5192,-4.3547,-6.6024,1.8922,8.6982,8.4851,13.6093,21.7573,20.9594,12.6332,11.5493,18.0800,26.4393,21.1692,24.7523,21.4348,35.0238,36.5871,36.8847,25.9403,29.4405,26.1570,28.1039,16.6706,22.3628,7.9620,13.1430,4.1660,-13.4334,-1.8131,-2.4912,-1.5375,-4.0638,0.2304,5.6573,10.2361,20.1342,9.3004,14.6859,11.4285,18.7269,22.5543,23.5533,26.0381,27.8543,22.5773,23.1194,19.1977,21.2131,13.0573,13.6178,8.9941,9.5287,-1.9975,-0.5755,-4.6269,-0.5974,-0.5210,5.3148,-0.2174,4.2914,-1.9566,4.4685,11.2935,25.1754,33.0299,31.2610,32.9238,31.0309,25.1911,20.1461,28.7699,34.1380,22.3446,7.1051,20.7514,28.1844,37.3120,31.2436,36.1835,34.6716,16.1616,11.8809,15.4884,13.1703,3.6626,5.4280,-7.9829,-1.5595,14.5351,8.0258,11.9871,9.1571,23.8060,22.8311,32.9539,39.3309,32.7655,43.3507,45.8489,42.6956,21.9455,26.7498,19.4969,16.4671,15.6574,6.9985,4.5982,1.7932,-3.1689,-7.0489,-9.3223,-10.0623,-4.8609,-6.0272,6.0914,2.1595,7.3013,7.7060,4.8748,16.6864,18.4084,18.0350,23.0721,11.4832,23.6272,18.7929,8.6424,22.9647,22.7685,14.6594,4.5884,-4.3453,1.4128,-1.9961,0.9044,-1.5739,-8.9429,-13.5722,-16.0076,-28.5095,-29.3986,-24.1759,-1.1760,1.0570,10.5547,16.7112,7.2637,13.5192,26.3211,26.0213,24.0767,26.5043,28.7640,27.8871,20.5029,24.5437,15.7576,19.2407,15.7510,14.3201,-0.1618,0.7349,-0.8852,-9.4882,-4.9520,-6.3424,-5.0130,-8.8780,-3.3059,-6.8262,8.2246,9.1601,17.5965,12.6391,13.1351,13.9140,13.3243,19.6386,12.5160,16.6486,14.2436,5.3855,5.7605,2.4847,10.7264,15.8255,3.0867,-0.6986,-10.5652,-16.2121,-12.3044,-16.9572,-24.9343,-4.2005,5.9613,-3.4710,-4.1474,-14.0857,0.9296,7.9843,13.7521,17.3490,18.2291,29.2380,37.7266,54.2223,37.7285,37.1384,37.8382,34.5921,29.4123,32.6077,16.9804,13.8623,15.5704,8.7328,4.4775,13.2792,13.7914,12.2882,1.4881,19.2798,14.5830,-3.8809,2.8485,1.2492,3.8472,12.3291,22.8776,28.2663,25.4733,18.8881,16.9753,32.1945,31.9898,33.8088,34.4595,24.2918,26.0771,15.5679,6.1427,5.7177,4.4520,-0.7691,-9.3051,-5.1749,-5.8910,-16.4567,-19.2433,-14.8610,-5.8308,-3.2765,3.9725,7.9165,15.5978,9.7355,13.0810,20.1813,6.7634,23.2647,27.3045,32.6550,31.0212,18.7790,21.7239,15.2604,21.9782,6.5487,9.0069,1.9852,4.8007,9.0674,6.8545,-1.9359,-11.0728,-5.2777,-14.3755,-3.2040,4.1032,2.4633,6.0417,4.8150,28.9444,8.9471,16.8493,24.1028,18.0297,36.6783,39.7035,23.8063,13.1905,19.6704,17.7140,19.4786,14.1064,5.1873,-2.5976,2.6879,-10.3399,-6.1413,-5.8748,-11.7708,-14.1910,-14.0566,-9.1452,-12.1215,-6.1423,-10.5244,-6.5198,-4.0154,5.8960,10.8014,7.4541,15.8290,15.9087,13.4420,14.9907,19.5815,4.6166,2.6042,5.6440,2.1482,-5.1015,-14.1674,-12.4090,-14.1436,-15.1257,-11.9200,-19.9032,-28.8906,-14.8667,-19.7567,-26.1427,-9.5229,-8.0863,7.7455,10.2027,21.2214,24.1365,30.6715,28.2581,15.6205,22.7756,12.3482,26.1829,29.1577,19.8036,20.9576,27.1535,17.6863,15.9208,4.2997,1.0035,-4.7268,-18.8221,-17.4000,1.8376,14.7376,10.6704,20.0684,9.9552,20.9079,28.5671,23.1904,26.1561,24.2327,16.9343,25.5983,24.3263,29.2130,27.4799,22.7069,23.4504,31.3768,18.6431,9.1653,-3.4016,-8.2469,1.4344,2.4766,-5.1560,-3.0203,1.2634,-3.5725,-9.5138,-0.2052,4.9518,22.2129,16.0704,12.4350,21.9612,19.0205,29.3916,32.5993,34.1047,41.1392,39.4985,37.4483,33.1927,42.3307,35.8208,23.1099,10.5257,17.0479,-0.0040,0.8040,-7.0972,-13.7694,-17.0703,-7.9783,3.3108,3.4354,-1.4108,10.4324,8.2590,6.5411,7.0032,4.6401,21.3899,26.2508,28.7070,26.0732,30.5911,35.4491,30.7052,22.4120,27.3763,28.4791,14.9035,15.0168,5.8743,2.2617,-5.9574,-9.3726,-22.5579,-32.0036,-19.9426,-10.5855,-6.9714,2.9055,2.1978,-6.6733,8.5565,0.7270,18.5735,27.4874,23.0122,30.6289,28.7115,19.3780,30.8944,32.9828,43.5838,29.1419,22.9818,23.9974,14.6035,12.7760,10.7534,9.9589,-5.2104,-1.4644,2.9163,-3.9485,-12.7559,-0.5740,4.9255,5.8329,-2.9298,0.9075,17.4067,30.8382,31.0450,33.5886,29.4203,25.1283,35.7266,38.5104,34.9482,28.9429,34.7136,35.4522,43.7564,29.1654,29.3662,13.0159,21.1863,-2.4509,-3.0888,5.7210,1.3496,-8.3818,-0.8776,-7.7876,-1.6169,-4.9701,3.6558,12.3965,12.3249,18.9221,27.7347,35.9397,28.9695,46.3826,56.5606,43.5675,36.0931,38.3141,25.1379,30.5478,27.5794,18.0272,18.4928,13.1174,11.0327,4.9309,0.2446,1.6611,-4.0323,4.9515,10.6377,10.4019,13.5216,16.5076,16.3682,29.9778,28.7805,36.7387,45.4952,44.7102,47.8856,40.6026,43.9611,45.6376,49.6488,40.2968,47.0963,48.2114,41.2768,57.9157,47.8487,32.6865,20.3967,18.7424,15.2727,20.8694,20.2131,23.8470,22.9529,16.5329,13.2552,29.2419,28.5873,29.4815,34.5537,39.5968,43.5272,42.6944,56.4986,48.6372,46.4840,46.3778,26.9216,40.1554,36.5096,33.7166,18.6801,14.3228,12.6483,10.2176,12.4513,6.9128,26.2149,24.3737,11.7113,10.0479,24.5004,34.6324,34.5003,29.1439,25.4000,35.9086,48.0703,49.8207,45.5496,36.1970,46.5205,44.8259,49.4016,47.4424,53.1544,41.9684,28.1691,23.9263,22.3408,13.4857,8.1432,25.8858,11.0815,25.6558,9.1970,0.9684,9.1522,11.3164,17.9786,17.9238,14.5911,23.4164,23.8491,29.8906,35.2554,37.8282,29.6137,33.3434,46.4504,47.8170,49.4882,37.8288,47.4453,24.6900,34.3507,34.8003,21.0064,14.2126,16.3065,14.1050,12.5403,19.0635,27.6936,19.5631,25.5834,36.3410,34.3121,41.8433,25.3563,24.1457,27.5537,43.8371,42.0277,51.1319,47.2715,48.8793,42.6641,52.3068,41.9894,49.5503,36.0183,31.7208,30.4403,28.6583,26.4189,14.0495,10.7260,8.9022,6.6520,13.3333,9.9955,17.2316,27.5673,29.3643,30.0160,43.0548,38.8399,43.6723,58.6694,63.3767,51.5333,68.9210,57.3678,55.1618,54.0561,44.4231,36.9330,43.0762,24.2581,26.9914,25.8129,26.8020,28.9940,27.6318,14.4933,24.6870,12.2397,20.4842,43.2936,39.2130,42.8732,45.6555,58.8091,60.1418,52.9437,48.2586,45.8283,48.2405,52.8657,50.1627,55.8897,59.1357,52.6249,42.2497,43.9101,36.4940,29.3217,14.6419,14.7987,12.3263,5.6620,5.6791,8.7380,13.7862,15.2345,26.0788,21.7879,25.3141,39.8692,42.6307,44.2904,40.9764,44.3428,49.5756,54.5094,48.2459,59.3535,43.3157,50.2816,61.0562,47.8710,45.8682,39.1012,44.9128,45.7105,31.3785,23.9616,35.0977,32.7488,21.5112,21.2308,2.7067,8.0492,11.1331,14.3572,14.4298,28.2116,25.0994,33.6167,34.0280,38.6450,43.9519,41.8249,31.3362,40.7381,43.2914,30.3672,35.4275,37.2525,31.2250,16.7638,16.9182,25.1786,18.2106,19.1304,16.3451,16.7765,17.1611,16.0648,21.7152,10.2198,16.2527,14.0994,24.2917,25.4834,24.6207,35.3345,39.9025,38.3453,30.6143,45.1802,37.3047,39.9795,23.8836,26.1394,33.1411,21.8415,18.8199,19.3001,14.7066,22.8859,16.9797,16.1993,6.2610,9.6745,14.7140,12.8598,8.4300,18.4076,25.7000,26.2818,22.2438,31.4260,33.4414,37.5229,26.4938,44.7133,31.4930,42.0790,33.3069,35.2240,48.3624,50.1640,33.3663,31.8056,31.0476,27.6911,25.1240,9.0597,8.8475,5.3795,-2.1204,6.7151,10.1326,18.2061,17.7428,28.9491,29.2540,35.6543,39.4271,24.4965,43.9571,50.4522,52.9525,33.1575,48.8979,38.2911,47.3791,49.7912,31.9191,35.6708,37.9245,39.6809,20.4343,13.8105,11.1523,8.6189,1.3898,16.4045,11.1635,-4.4570,-0.9227,10.3744,8.8410,8.9853,17.2321,23.7292,31.5089,38.9028,47.0997,41.1347,50.3551,37.7080,38.4813,32.9670,46.3318,47.1908,30.6590,29.8689,35.4397,26.3790,25.4225,23.1291,18.4717,8.1470,9.1222,13.9299,4.1930,13.8008,25.7629,30.7973,22.6598,38.9460,46.0538,40.2879,50.0611,50.7830,54.6861,59.8921,45.0611,44.6677,43.8626,40.9855,32.7844,34.4012,38.0925,35.5747,21.7428,20.5466,22.6119,7.5081,8.8239,4.0130,-0.4082,8.4866,1.4245,9.1651,11.2122,9.7577,21.4651,29.5268,30.4189,43.5121,52.0071,42.4302,46.0445,46.6604,40.6126,45.6075,46.9939,39.5462,38.8560,33.9715,40.2524,26.1542,16.4652,6.0404,2.7083,6.9972,3.1091,-2.7392,1.2518,6.3861,7.9286,14.4422,24.9670,32.2778,30.0462,23.0151,25.4254,32.8710,34.7630,39.1042,41.7743,46.2154,40.2814,44.3232,49.4914,33.7187,37.1787,31.2475,29.8661,20.1552,16.8617,11.8540,-6.3470,-6.5570,2.4194,-8.1680,1.6923,9.4372,5.8507,8.1919,16.3302,21.5130,15.3294,27.0304,19.3932,35.3981,36.9100,30.8637,36.5543,25.4554,24.1258,15.6301,19.8235,23.5953,19.7110,16.1441,11.9128,6.0587,7.6993,4.0835,1.1629,10.3631,-6.1030,-0.3591,3.6614,8.1590,12.8938,30.0526,32.2333,29.2494,24.1753,23.4960,40.1096,38.7314,32.8942,32.2353,41.2031,46.1921,44.2093,39.9706,33.5736,19.8398,10.4231,3.9389,15.6491,9.1396,-0.1124,0.7795,-2.6299,0.3693,6.7694,11.0766,4.2876,0.8738,0.6705,7.9366,0.8289,10.0206,19.4091,24.3114,38.1343,30.6947,41.6399,36.1305,33.7310,29.8743,29.2587,30.0881,24.1924,14.3416,17.1710,4.0376,12.8233,4.5235,4.1778,5.5974,2.6717,13.3744,-5.4296,13.4067,10.9988,10.9717,15.6199,3.2502,16.3765,15.0221,15.5493,28.5861,31.5287,36.9245,37.8956,28.5713,17.1730,15.4138,11.1742,10.7205,3.7864,9.7258,8.2477,6.7809,-11.6422,-15.3581,-9.5796,-17.9592,0.4589,-7.8001,-6.9035,-0.9744,-3.4158,3.5730,6.1574,3.9490,10.3951,14.1318,22.8891,28.1289,22.5882,35.1543,31.0369,17.9443,11.9105,3.2093,6.4928,6.7808,6.1551,1.1048,-0.9198,-7.1683,-18.2809,-15.0832,-24.6934,-3.7654,1.7656,3.8708,6.3689,12.1853,9.5520,4.0255,15.9042,21.7522,29.7795,35.8893,31.7124,40.1100,35.1500,43.2874,37.0119,35.2979,28.9024,19.5638,18.0164,7.5597,14.3122,10.1082,1.6466,4.7293,-11.8413,-9.2847,6.6372,-4.1703,11.7953,5.7507,15.0876,26.3517,35.8195,22.0071,33.1241,40.7328,45.2758,38.4969,44.8415,36.9479,22.1807,35.3435,39.7923,23.9025,19.9870,18.1794,11.8864,4.3035,6.6414,3.4158,-0.5480,-8.6707,-17.0592,-14.2022,-4.2815,-14.4885,-3.8147,5.7953,1.9165,8.7390,7.2331,3.4304,17.8783,7.4273,12.9484,14.7070,19.0310,24.4571,19.3572,13.3841,10.2600,12.4018,15.3037,8.5911,8.2619,9.8686,4.4458,-3.5937,3.2490,-8.5989,-0.0051,5.2206,6.2452,10.5652,16.9580,29.5392,17.3680,36.1483,33.9571,24.8111,38.7429,38.0451,33.6023,34.4223,39.1701,34.8997,18.1901,22.9744,26.3473,15.7301,15.6744,9.9881,10.1126,-1.0352,6.7925,-2.7266,-6.2984,5.6936,0.4016,-16.2431,-6.2784,5.1726,2.3716,10.0172,13.5208,28.6376,18.8300,28.2383,41.0628,35.0775,40.9682,35.5099,24.0537,36.8198,24.5770,28.6326,16.6942,20.1975,21.7555,9.4714,4.3707,14.7909,-0.6413,1.3027,2.3207,0.1392,1.0321,-0.1826,5.3790,4.3640,7.9872,9.7612,14.1653,24.7410,34.0457,36.4081,34.7152,35.6274,35.1166,31.1944,32.0113,25.5309,16.8876,19.8425,20.2007,18.4651,15.7592,14.6893,10.3938,16.3413,13.4024,8.1951,2.0055,6.7200,9.1794,15.1371,15.0917,26.6580,23.9484,26.8324,27.0978,36.0173,37.4114,53.8124,46.9621,49.0482,56.1862,47.3466,49.2209,33.4294,28.9333,27.6001,19.0418,11.6802,13.0519,12.1890,1.5452,5.5090,5.6454,11.0528,8.4435,-3.1133,14.5751,1.9481,8.4596,8.8425,15.2901,21.3091,34.5548,27.6110,28.2398,26.3063,35.0932,32.8004,26.4382,20.5565,16.1963,8.8867,18.0065,9.5297,7.7418,8.4796,10.3243,10.0695,10.6391,8.4564,17.0434,5.5916,8.5850,7.9269,12.3936,6.3472,9.2636,12.2307,18.4437,24.6575,22.5226,31.2182,26.6779,44.6815,38.4516,33.5039,40.1134,30.7851,17.0491,15.7583,16.9145,23.5035,21.4803,2.2353,4.9891,22.7551,13.2379,2.8107,4.4743,15.1706,15.8834,18.3974,23.9948,23.0712,21.6590,13.0634,21.2012,31.9031,38.8706,42.0164,38.1029,42.5426,46.4213,38.8479,32.2305,25.9334,12.6710,6.3213,0.1295,1.1960,7.8086,4.8196,5.4682,5.8513,2.2344,-2.0572,-8.2734,10.0196,12.1710,7.5668,15.9811,20.8918,22.4097,22.5240,26.3264,43.8606,39.4584,46.9490,32.9686,25.3352,24.0580,25.3315,25.6510,32.3405,23.2224,4.6466,7.4801,8.4948,4.6283,-10.0574,4.1143,4.5915,2.1261,2.6608,7.7119,2.2046,-6.7455,6.7376,15.9549,21.6869,26.6498,25.1914,25.5828,17.5580,26.2201,22.6965,33.9078,29.1918,35.0309,26.5590,13.1318,26.4398,19.7407,-1.0744,7.0644,11.3447,16.8727,13.3393,14.8048,5.5221,-7.0776,-3.1640,-5.3556,1.9030,10.9904,16.2007,22.9912,22.6464,36.8789,33.3963,37.6278,42.2447,42.8529,44.1504,38.8156,38.5230,38.9526,21.7601,27.2137,30.4342,24.2551,-2.1604,0.4008,8.3829,5.1688,2.9469,12.4573,-2.9001,-6.0516,1.0812,9.5346,2.5614,0.9365,11.1166,14.7286,26.9509,36.2198,38.0451,46.4896,40.7726,34.2512,27.9503,29.5328,26.7362,28.2092,20.7417,5.4999,16.7179,23.3358,10.7546,13.4875,7.7331,5.1830,10.0881,21.8633,23.6026,35.6123,16.6960,28.3102,17.7287,28.9665,19.4469,19.6648,19.8790,34.0032,40.1243,43.6742,42.6366,41.4078,37.6365,40.3355,40.7948,34.5138,37.4125,38.5644,35.4486,29.0797,15.2099,17.9928,17.3785,6.9679,14.3827,21.7042,24.7264,34.7177,25.5011,23.7470,28.8951,44.1917,46.5219,46.4120,60.4222,57.6018,54.1987,41.1721,44.8847,42.1658,41.1048,59.3735,43.3807,36.1602,29.3159,17.3183,23.0803,22.3558,8.1082,7.6870,4.8362,8.3476,17.2597,21.6566,18.4753,18.1856,32.6851,29.3218,38.3651,38.1761,36.9889,38.5392,38.5161,37.7037,33.1375,42.2988,37.5109,48.1668,34.6173,31.4725,26.6352,17.5674,17.1689,31.0761,24.8120,4.7008,0.5273,4.1524,-3.2209,1.7956,18.2589,12.7887,23.7365,31.5715,26.8279,23.1995,30.8123,17.8383,21.6628,28.8248,23.2508,27.9946,26.9654,23.1284,31.4676,23.7553,22.2657,13.6188,18.0148,13.2490,2.6848,4.3212,1.9042,-8.3264,-13.2249,-8.6963,-9.7403,-9.8231,-6.6147,-3.7375,5.6833,-3.3076,14.9972,20.0421,27.3454,29.2230,32.7889,33.4389,25.2916,28.5781,32.6360,29.8158,16.4494,5.5891,-4.7208,-2.3810,-12.6048,-18.9159,-17.0380,-4.1280,-4.7593,-0.4080,-3.3529,-7.7945,-10.6402,1.6748,9.6689,13.0699,17.1952,14.3999,14.6002,23.6002,19.7465,29.6005,28.2160,17.2701,27.0694,42.4356,35.1552,25.7405,27.0060,34.0565,24.5863,20.0486,11.4859,3.9665,14.3303,-1.9252,-1.3918,-10.2399,-3.8813,-11.9106,-5.9583,1.5375,6.0462,3.3511,6.7144,22.9501,27.1434,34.9260,32.7397,17.2447,19.8480,12.3746,11.2302,6.9594,25.3298,25.6658,20.3889,17.3009,0.7156,14.5413,-0.0342,-15.3412,-19.2252,-10.1678,-19.9576,-23.5745,-17.9435,-12.6842,-2.5624,3.4463,6.9126,15.0727,8.1932,11.1976,16.9591,23.3458,31.4934,26.1521,13.0517,10.8854,29.6631,18.4958,19.9162,5.0534,-9.9732,-2.1209,-0.1235,-4.6855,-20.4050,-20.7263,-9.9042,-10.2026,-19.4809,-14.1921,-20.1617,-8.1200,-7.4794,6.8413,6.6694,4.4268,4.2113,25.5713,23.1778,28.3122,24.3640,20.3132,6.8253,5.5267,17.1169,10.3540,14.4146,11.6981,23.9310,7.4658,0.4280,-5.0321,5.9959,1.4869,2.8702,8.9916,5.8536,6.1622,14.6308,17.4056,9.7657,12.3987,14.1318,29.3984,40.5539,29.8601,37.8508,37.7781,28.2618,23.5800,37.8116,31.9400,26.5903,16.0250,5.3639,-2.1804,0.6629,-5.7802,-7.5877,2.0871,3.5093,7.4241,1.3696,-1.7915,-12.6990,-11.6450,8.3933,3.5162,6.6798,10.0397,11.8430,24.1298,28.4720,23.0339,14.5147,14.4018,11.6308,24.7994,19.3097,8.6310,5.9555,0.3579,-4.2474,-0.5862,-0.7703,4.9077,-7.1926,-9.7740,-4.3149,-11.5747,-18.1253,-28.0830,-19.9113,-7.6659,0.9878,3.5312,12.9070,18.6164,21.8873,30.1633,35.2547,31.3350,28.1974,25.3193,33.3354,41.3029,40.1639,20.8537,3.5073,3.7903,6.2970,4.7544,3.0782,-3.9633,-7.0252,-2.4593,-5.0677,-10.1999,-7.4365,-14.9977,0.9825,17.8143,15.8717,17.0436,35.3218,36.2809,39.3359,40.0726,42.1405,53.2180,49.0904,47.7179,56.2988,54.4987,28.9596,22.1795,16.9807,27.4661,32.4576,23.0899,18.5610,-1.2030,11.1862,-1.4058,-7.4688,-23.1253,-19.2380,3.3090,2.8036,3.8893,14.3527,24.4532,16.6940,20.0518,34.1564,29.4506,29.3685,32.7137,34.1635,41.7143,33.3860,34.0025,27.9024,23.2305,4.9987,8.9773,20.9513,7.7130,0.5114,-3.4212,-1.2988,8.6443,15.5024,13.6125,8.3073,6.3339,11.5577,21.6106,14.2790,17.2158,17.0230,26.4656,31.9868,26.3122,33.3422,26.9874,30.8372,31.6216,22.5375,26.3746,23.9258,17.4624,8.3312,8.4067,1.1540,1.9478,5.5148,0.1737,3.0548,13.0972,11.4368,4.9872,5.5885,8.9776,9.0402,18.4166,22.0556,24.3030,27.4203,22.4296,23.8248,33.9152,36.3017,39.8259,34.6835,22.0685,15.9366,19.4058,3.7778,-0.0214,2.3154,4.2224,-1.0015,-3.2479,-3.1562,1.8165,-10.0115,-11.6734,-10.0438,1.5583,4.3593,5.3869,5.4816,5.2853,7.2114,19.8257,7.7691,11.3096,18.9149,15.6236,9.5462,12.7241,-1.8261,15.7604,16.9747,4.2400,7.9214,1.6192,-5.2953,-3.2096,9.4218,4.3672,-1.2514,-5.0259,-8.0870,9.2054,22.5095,16.6756,12.9380,22.7949,19.9651,30.4056,20.7646,20.1657,24.9500,34.9570,33.0398,45.1719,49.7601,33.8014,26.7977,16.5215,15.7470,12.6528,1.3389,-7.5728,0.1312,4.3870,-4.1611,-2.2213,-11.4753,2.5198,2.2150,-1.6358,11.1709,9.9238,17.6371,10.9934,28.0681,33.2919,31.3615,35.4120,32.1206,36.8439,47.4548,35.5542,29.2312,29.1209,20.8871,29.3281,22.4606,11.1397,5.1880,-1.3700,-7.2051,-10.7099,-10.6893,-13.2584,-1.3309,14.4105,17.9870,21.4636,25.9825,21.5484,31.9057,16.6239,36.0533,35.4081,32.1220,29.1371,28.9470,33.8743,32.2094,30.4305,11.0212,14.6852,17.2856,13.2922,6.3403,5.3911,-10.7163,-3.7119,-3.9748,-1.3586,1.8083,11.5719,6.0375,23.8941,25.3304,20.9882,25.2802,19.7058,27.4713,39.9414,50.6440,48.1353,47.1615,43.3152,32.4230,32.5409,29.4872,33.4018,33.8381,38.3868,32.9694,25.0202,18.5553,20.0320,17.5182,0.9407,8.0360,8.6350,9.3461,23.3424,33.2081,31.6037,18.2433,25.3574,29.0606,29.2277,38.4446,46.6221,59.9407,39.8310,35.2422,35.3399,52.4370,39.3947,28.2382,22.4758,24.3096,26.1914,16.5403,-3.5296,6.6056,-0.6333,2.0669,-7.5653,3.5146,-5.7668,-11.7115,-7.7393,-5.1442,-6.4175,21.2770,29.2122,32.5108,15.7950,22.9604,22.9893,29.3622,37.5309,30.3739,23.1824,22.1439,21.7083,22.8472,23.6305,21.3958,7.3565,1.3672,-4.6140,-4.3267,1.4127,0.3343,-1.8053,3.7380,0.0507,-1.3615,4.9744,8.0101,20.5876,22.3707,29.2760,30.1597,39.4485,43.6887,31.4968,27.4718,34.4901,31.7650,35.7758,26.5227,23.1319,26.1348,20.0395,14.3874,8.4228,13.5892,9.3069,4.6913,-1.0572,12.6333,6.1648,10.8697,9.8889,16.9525,12.3688,9.6978,21.6268,32.6081,32.2989,39.7646,46.4291,52.5095,57.1755,47.8619,42.7326,37.5193,30.2925,38.4606,26.7326,19.6061,15.8500,2.0784,-0.0154,3.2072,-12.2496,-15.5884,-8.8849,-1.7481,1.6832,7.2198,22.6874,15.3978,13.4695,21.1498,19.9474,27.7954,24.7100,28.8243,42.2342,44.2016,38.5536,17.0730,28.3501,29.6765,18.7531,20.2028,34.9163,33.9167,22.2715,12.2969,9.5438,13.9741,-0.0062,5.3071,5.5618,-5.9162,-2.1171,-11.8032,2.9247,0.5138,14.2820,2.0500,8.3894,10.6195,28.0221,26.1053,34.1536,26.0120,18.8933,28.6627,29.4122,29.8111,14.7324,12.3754,2.3630,2.3359,2.0790,-7.2279,-4.0460,-12.1616,-25.8152,-16.0153,-21.2528,-8.9353,-0.9805,-0.2672,7.7057,13.3563,24.7128,6.7390,13.5948,32.7229,42.2831,33.2412,46.6967,31.8556,26.0435,26.5264,22.7227,24.7246,13.1067,1.2730,-1.6313,-14.4947,-13.2425,-21.6217,-22.6644,-12.5660,-8.5852,-14.2507,-25.2062,-13.6507,-11.7303,-15.5315,-0.4704,-8.7026,6.3911,13.0621,21.0595,19.1207,29.8184,27.5202,32.2105,30.3134,35.9742,15.4375,14.9397,2.8629,4.4516,12.0295,8.6852,3.6534,4.1805,8.3713,7.9562,-10.4783,2.4755,13.7711,6.1923,4.6643,11.5950,13.9263,14.5886,29.1469,33.7339,52.8421,35.5224,32.9669,42.4628,44.6783,39.9496,41.7138,38.7736,45.3145,31.4331,26.8365,24.3529,16.1947,17.3204,8.4608,10.3973,9.8946,4.8774,9.8281,12.6407,7.2298,4.2250,9.5681,4.9659,20.6545,18.5592,14.4853,28.3297,42.3937,31.5872,51.9893,42.9480,40.7413,47.7676,31.9226,31.0274,25.9674,22.1156,7.9244,1.9390,-7.5163,-0.4623,-2.2301,-0.6323,6.1177,9.9735,4.2584,3.5769,9.8986,-5.4695,9.4477,5.0207,13.7371,25.4482,20.0342,33.8347,21.7651,28.7691,35.7718,25.9976,24.8636,14.9863,18.8727,19.4498,14.8497,8.9236,3.9355,9.0772,17.8114,-4.4180,2.4597,-4.7960,-12.1752,0.6395,-0.8020,0.5770,8.7238,-2.0075,9.1611,11.2843,14.5794,23.5570,33.9928,37.7944,28.6984,34.1724,29.8809,29.8947,20.4786,22.8138,18.0052,9.6218,5.3586,4.4095,-0.7007,-1.9808,-5.0654,-17.2281,-6.1089,-10.0048,-6.4946,5.4029,8.0469,-2.4493,-3.2751,1.8208,12.5374,15.3290,17.5410,16.3906,24.5808,28.7802,33.5104,29.5430,40.0224,30.3178,17.2326,17.2566,6.2049,17.4314,11.6126,14.5735,6.8383,-0.2446,-0.8915,-2.4453,-1.9889,0.2380,-5.2815,6.2441,2.6189,5.4370,12.0381,11.9008,20.0001,36.1283,46.6117,58.3131,58.8134,35.9875,41.0934,31.2370,27.5033,35.3411,25.4046,29.6385,29.1984,12.3801,16.3953,14.0705,14.3557,10.6627,7.9922,2.3736,3.2825,7.2684,7.8628,15.6984,13.2817,28.7387,33.9748,27.5169,35.9463,36.9497,39.9191,50.7375,41.0805,42.0556,39.2532,42.0527,45.5765,26.0869,41.3473,39.7654,21.8360,36.3452,32.9411,29.0682,18.3135,-0.4801,-0.9902,-10.5939,5.1191,12.7183,18.6376,10.3984,14.4951,17.6723,19.2290,38.9016,40.6281,41.6826,48.8298,50.9405,50.2627,42.1808,38.0429,30.0740,32.9247,35.2346,30.0677,35.9219,24.0158,31.5019,23.1546,19.3850,0.9418,9.2814,22.1084,33.8014,46.0566,28.4776,17.9595,25.7032,24.9140,35.0550,49.1771,48.9145,39.5713,33.7872,37.9659,31.4122,42.0027,44.5970,34.6971,31.2809,46.8006,41.0809,55.2334,29.9484,24.3609,26.3531,16.6086,27.7591,11.8307,16.1448,24.4490,24.3291,26.9282,18.8053,28.8553,40.1733,42.5586,46.5561,61.4728,56.2216,46.8881,53.7865,56.6043,56.3704,55.0077,56.7077,49.8457,39.1633,24.7713,14.3034,25.2799,16.4176,17.8010,14.3355,6.7153,14.4113,10.9564,4.4019,6.8092,9.6006,8.6439,25.7663,21.4002,8.5814,30.3883,21.2710,22.4156,35.1451,33.9991,29.9630,36.1205,34.7704,41.9873,24.2849,18.7462,28.1150,21.4164,27.2282,15.4051,7.4219,6.7937,0.4254,7.0795,4.7215,-10.8918,-12.4246,-11.5313,-13.9376,-10.6300,-1.2544,3.4514,4.0331,3.4399,15.5270,21.1548,33.6066,28.7256,31.4334,33.6942,31.5110,30.2540,27.7070,27.3557,29.7018,36.4725,23.1029,0.1453,3.5857,-11.8759,1.7765,-4.2649,-3.0449,-4.0121,0.0678,-2.7886,-2.7226,3.7278,21.2395,19.4536,28.6549,35.3707,45.0307,37.4198,30.3919,32.6734,27.3916,20.3136,26.2981,19.2854,10.1979,-4.0034,-5.9890,-16.7888,-12.9073,-3.0436,-4.3211,-8.2820,-8.9764,-13.0900,-6.5868,4.1252,7.6207,3.6955,-0.8827,5.4185,22.5970,29.5006,19.1029,25.1142,24.6107,38.6877,43.9966,40.9521,40.4456,36.6900,36.8832,11.6435,13.8823,4.4737,10.9712,15.0394,15.0680,3.5280,2.5913,-8.5023,-7.5042,2.7535,12.1684,9.3111,18.2965,22.8443,22.7303,25.7212,37.3580,40.9353,42.8775,39.9212,32.5953,49.5026,52.6486,48.4260,40.3918,33.7056,20.3518,28.0234,25.0378,20.0588,18.1244,-3.0248,6.3938,8.6957,-3.7130,-11.7405,-5.2740,12.2831,9.4084,7.6763,18.6560,4.8300,13.8043,5.7397,15.3141,30.9783,49.5384,51.7143,48.6745,34.8049,33.0414,33.3787,17.3085,20.4935,8.6566,20.5236,13.0480,0.3399,6.8541,1.9576,8.1942,4.5724,15.8120,10.3517,7.9676,15.2021,11.1187,29.0874,30.3470,25.3448,36.9007,38.7138,37.7371,48.5997,48.5726,48.9074,55.0888,49.9035,33.7102,27.9425,36.2324,27.3224,20.6547,10.2869,2.7104,13.6882,9.9695,14.4194,2.9134,-0.6857,0.6839,0.6611,3.2211,18.5421,24.5065,21.2142,23.7560,24.5694,26.2995,28.6056,32.0276,35.2219,44.5702,43.8603,34.6963,31.2161,30.6205,29.3906,37.1070,33.9020,8.3729,1.5738,5.4387,-9.2355,-3.7903,6.0739,0.5140,-8.2225,11.4033,2.2989,5.6277,-0.5595,3.4322,8.4178,10.8825,13.6288,12.6113,24.2163,30.9928,23.5203,41.9632,45.4110,36.0699,37.5728,44.7103,38.2777,28.8273,20.4779,22.5452,18.0042,5.2866,9.9742,17.9360,12.9062,16.0705,13.2467,12.1249,31.2579,35.9884,37.0985,35.4293,44.2309,56.8910,52.0103,35.8372,45.3811,34.7120,34.6951,33.3862,37.3653,36.6326,32.8438,32.5996,35.5173,29.3549,22.5532,14.7525,6.1832,2.3445,-0.9460,-10.0849,-5.6278,2.1304,13.8846,4.9882,12.8642,22.6509,13.4249,25.8106,27.2341,29.9478,37.4890,46.7718,42.4779,41.2135,43.2420,41.3145,34.8903,28.6298,19.6087,27.0403,18.9437,5.4717,5.8935,-7.0969,-13.8697,-14.2533,-17.1471,-9.2080,-3.3859,3.3487,6.9138,23.1712,33.3187,29.1835,18.5309,25.7880,36.8698,27.8319,31.7235,34.8614,37.4344,46.1185,34.9363,23.7247,35.0144,30.8997,28.2437,23.6961,26.1250,19.5133,13.3679,13.8316,18.9744,1.0844,3.1351,9.9543,10.9919,16.1554,21.7989,17.2213,21.8895,22.5729,36.8930,48.1058,50.5532,55.7486,53.7401,52.9211,58.0749,48.5226,52.9038,36.1021,39.9168,30.5936,21.8727,21.2147,25.9550,21.5239,11.0412,2.3972,5.1436,5.9179,9.4184,3.2986,2.3593,9.9243,25.4344,31.9161,20.8388,35.5189,44.5286,45.0256,46.9781,67.7665,50.3733,51.9683,53.4447,50.1266,50.2968,43.3389,42.2412,37.9821,23.2109,20.0132,18.0007,25.1641,22.9365,21.5391,9.8103,12.8559,9.0797,10.9050,15.1609,15.0625,18.0883,18.8926,25.7451,33.0022,38.3950,50.5679,56.9888,56.2011,58.4611,53.7037,62.0217,52.6567,51.5479,34.6983,35.6633,32.2091,14.7827,14.8250,17.4909,16.1415,-3.2342,4.0467,9.8001,-1.2365,-4.3922,2.6216,0.6773,19.7422,17.8628,36.7340,33.3225,31.9925,40.9348,52.3202,47.2949,38.9144,43.8445,46.5611,36.9619,44.0897,39.5250,31.2302,32.2213,23.4554,18.2049,20.7474,15.0723,18.2785,12.5042,-2.9528,9.4915,4.8934,8.2544,19.0812,18.3579,13.1076,19.2379,30.5091,23.2987,26.5844,26.0442,25.2587,41.5209,41.6001,42.1327,43.8572,36.1882,41.4569,41.2507,31.3095,24.6246,15.2307,12.1466,1.9479,3.0355,-3.4408,3.7753,1.5215,2.0321,8.7679,3.0028,10.5570,19.9259,16.5631,9.8812,16.8241,30.0655,29.0005,35.7621,36.9113,32.4126,20.2840,19.1454,25.9268,22.1906,20.8976,19.2552,6.0019,-4.4216,-2.2744,-12.7386,2.2891,-6.0624,-0.5511,0.4655,-3.8406,-5.0056,-3.0552,-2.9642,2.2186,3.0422,12.1651,17.1508,32.7817,26.3781,25.0059,32.9179,33.4821,39.4094,49.2977,48.2470,39.6500,41.9577,20.2042,17.3623,19.5267,12.2178,13.8378,18.8770,24.9477,8.1292,-1.5821,10.6440,4.5334,-2.3949,11.5250,22.4552,25.7392,33.3135,41.5824,43.9111,50.0011,53.6699,34.3863,44.0416,32.4462,34.6976,34.6436,34.8855,34.8877,30.2224,27.4804,31.4051,25.1027,9.8193,6.7997,3.9158,17.4865,15.0166,-0.4261,-1.5649,5.0510,8.5308,18.2541,30.3672,43.8075,46.2365,41.4989,41.1560,48.3763,59.9513,61.8763,65.5279,57.0310,45.2420,45.9354,35.5030,32.7164,33.7543,32.1117,29.1360,24.9846,22.3117,11.5380,15.9504,25.9406,30.4709,25.7063,21.0002,21.4748,18.2382,33.5748,27.8661,38.3953,32.8476,50.6762,52.8496,49.1950,46.9116,46.5760,41.7361,45.2668,35.2866,42.3068,34.2800,31.2799,20.2875,20.5365,5.4833,4.2246,10.4307,15.9935,16.5607,-5.0057,6.1106,21.4753,21.1755,34.1463,33.3189,35.7388,31.1010,37.2399,53.3040,61.6044,56.6005,50.9596,57.8262,61.1280,63.2372,54.2168,58.4496,53.5027,44.1567,41.9594,22.3082,31.9008,26.5020,25.0365,28.9770,24.7422,22.8858,14.0240,20.1209,34.7842,29.3369,28.6371,25.1015,41.0499,42.8868,41.8417,54.9566,53.3914,71.8208,63.0728,65.5441,69.0328,59.0559,54.3326,55.6382,44.2496,37.4693,31.9668,11.2007,16.1295,14.0877,16.6415,22.6375,10.3651,-2.9249,7.3397,15.1489,31.6760,36.4081,27.4583,33.3976,27.1146,47.9729,41.2560,45.7851,31.5091,41.8682,31.5336,33.7333,33.5381,30.6669,40.9598,20.3943,15.6123,16.2325,14.2655,6.8998,9.7183,12.2153,20.7494,17.3176,7.9307,8.0674,17.9502,20.9299,20.8938,34.7003,32.7733,30.9938,43.5335,42.6640,44.4548,27.2888,28.0119,41.1509,29.7032,30.5416,22.1927,35.1978,22.7951,19.8447,19.4356,27.9960,26.1692,23.4482,16.4676,11.5862,8.9463,20.3514,15.1774,15.7293,13.7181,13.0599,25.4771,33.1548,33.1812,25.3129,37.2681,38.9544,46.1649,45.2563,39.5539,28.8454,20.5138,15.7479,6.4647,20.4165,17.5785,12.2558,19.0920,14.8951,18.0889,22.5832,9.5958,7.4527,13.7188,14.6048,7.0930,4.2652,16.2769,26.7541,29.2526,26.9168,40.0826,30.8272,34.1244,33.4582,38.3237,32.2240,33.2916,39.9724,34.5865,31.6616,32.3275,26.1351,24.9911,14.5841,7.9064,4.6171,2.0697,-4.1327,-0.1405,-5.0570,3.3641,6.5975,1.4436,1.8479,1.6837,17.0917,22.5143,21.6641,18.8123,23.2715,33.2559,46.6391,33.6680,30.5805,33.8958,25.1302,23.3708,28.1778,28.2084,24.1371,9.6783,12.6739,3.6629,-11.7774,-5.4614,-15.2354,-2.1378,10.3540,6.2674,8.5379,5.5310,15.4280,13.0058,14.8506,29.1985,36.0753,40.9964,44.6300,40.1281,45.0944,38.5144,36.7890,34.3026,23.8321,13.9026,3.8181,14.7123,8.1246,-1.4039,7.2053,7.0017,15.7288,1.0008,-5.6794,9.2167,3.8313,6.2432,11.5593,14.1860,26.7090,22.5416,23.4159,22.0578,24.7824,29.7623,38.9727,31.1994,22.6523,17.5570,11.0765,27.6450,11.9220,12.3476,7.2004,1.6730,2.0916,1.8809,-4.9174,-13.4837,1.2320,-0.0916,-12.2593,-6.2284,-3.9960,-4.2686,0.8698,12.7782,21.1331,25.8098,23.6797,24.6782,23.2234,12.9553,27.2134,16.4588,26.7621,26.4743,27.8090,28.5497,24.0415,25.8155,22.4357,20.8183,-3.1992,-1.5073,-9.8964,-8.1528,-12.8153,-10.9337,-1.1404,1.3200,-9.7080,2.6582,14.6488,17.8116,21.4960,28.9736,28.3044,27.6451,31.4887,36.6910,35.3033,51.3867,39.4209,33.1113,28.2154,22.8034,14.2021,10.8793,11.8661,17.4939,0.5518,-0.3979,4.1097,8.7173,3.5450,2.8351,12.3735,11.3639,31.0184,24.5726,21.4772,24.6367,35.1646,35.7668,45.5104,36.3664,27.0755,30.4313,27.6309,30.1815,22.7019,20.2292,18.0483,15.6725,18.8763,8.3301,7.1772,3.1194,1.3022,-5.8843,-3.8340,-13.7843,-14.0697,-7.2146,-4.7514,-2.2040,-6.7549,4.5906,15.4522,11.4434,17.5792,30.7195,22.6488,30.0897,27.8474,20.2504,24.1570,17.1765,10.9568,-2.9802,3.0452,3.9556,3.3788,-3.4602,3.0166,-9.7568,-5.3394,-9.3937,-17.7748,-18.2650,-16.7777,-5.5954,-2.7838,1.2336,6.1327,5.3540,14.6562,16.8666,11.9220,23.2910,28.2013,20.8820,32.5132,25.4086,24.5668,21.4907,24.0105,24.9988,12.8611,2.3977,-8.2029,-12.8547,-22.9602,-19.1684,-10.2586,-19.3503,-6.1722,4.3486,-7.2693,-5.7327,0.2689,2.5769,11.9259,21.1302,20.5188,24.7413,17.6220,12.7901,7.2884,3.1439,16.9993,10.2610,-2.8322,-6.0767,-2.3652,-11.2483,-3.0821,-8.8508,-13.5667,-20.9258,-13.6591,-18.2781,-19.8063,-8.7231,-13.3149,-6.8241,-3.9698,7.4280,-0.5577,-1.6515,-3.6671,1.6442,6.3482,18.0814,18.4610,14.7422,17.6353,11.5320,8.6822,5.4662,1.4816,6.9604,1.7870,-8.2770,-12.8392,-11.7091,-2.2506,3.9161,-2.3013,-4.1583,-2.8843,2.3870,-1.1353,4.1678,-2.0841,-2.4358,9.3289,20.2923,19.6559,18.2158,23.2725,29.7855,27.2798,33.6599,28.0430,18.2702,22.2287,6.2262,8.3947,7.0645,-3.3154,2.6338,-3.3553,-1.7538,-0.9511,-8.1489,-5.1702,-9.5655,-9.6318,-0.7499,0.2772,7.3761,16.3370,1.4116,11.3680,14.0717,27.8851,27.6421,28.1346,29.6436,27.8968,32.6514,22.0164,18.6389,23.2883,8.3908,12.2256,-1.8982,8.0507,0.3600,-1.8907,-2.7646,2.7521,1.2113,-3.2075,-4.7321,1.3008,12.7146,7.8481,13.1494,9.2111,12.4022,23.2603,25.9058,19.1325,27.1890,31.3338,25.2360,30.3463,27.7210,33.4361,17.4058,9.0421,1.8707,5.2341,3.4086,0.3039,-21.8252,-22.7224,-12.8746,-12.8042,-14.7469,-6.8241,3.8819,-9.6701,-3.6733,-3.2350,-12.4608,-3.6877,23.2153,7.6066,6.3717,0.9319,-1.1326,-2.2229,5.5842,15.8903,29.0297,10.3259,-0.8671,-1.0345,-0.8295,6.5392,0.6205,-5.3521,-21.5616,-11.0427,-22.0025,-18.8031,-19.2660,-13.6283,-10.7551,-3.7861,12.0812,-2.0232,-4.1911,3.5283,10.0979,-0.1127,17.2781,0.5747,9.4212,20.4585,21.8964,12.6801,7.1307,-5.2951,-7.3089,-2.3124,-8.3572,3.0288,1.8952,-11.5691,-18.4805,-3.7759,-10.4009,-20.5156,-10.9490,-2.4370,-15.9963,-11.3369,4.8682,10.7113,3.4870,4.3775,21.4871,39.2537,37.0095,26.0606,23.9232,31.9087,26.1501,22.5956,10.8800,-3.0581,16.2766,-1.9048,1.7616,-3.1990,-9.4394,-5.0432,-14.7252,-16.8325,-18.3162,-20.2176,-30.3469,-17.0308,-16.8784,-15.0125,2.1737,-2.2186,2.9952,12.4976,12.3808,16.5408,20.8796,13.9008,10.3797,3.2036,2.4430,12.6247,19.6299,6.5546,4.1051,0.4571,-0.9825,-2.2127,-0.5520,-9.6841,-9.1283,-20.3882,-16.9509,-0.5213,11.2553,16.4793,16.6648,20.0729,2.8942,7.4409,8.6125,12.1313,22.6439,27.1285,35.6355,18.7376,19.3639,30.2642,22.4361,27.5176,12.8719,16.4129,22.5955,7.1357,0.7506,8.6359,2.3813,3.0987,0.7212,-4.7072,8.9091,14.9145,15.0501,16.0798,17.1409,18.4192,18.0743,22.9641,28.2557,25.6045,34.2248,23.6584,23.9890,24.7812,22.6393,18.8138,28.2151,11.3573,15.1023,1.7872,0.7301,0.8388,-11.1373,-11.2434,-2.2742,-0.7484,13.4843,6.0507,5.8572,-0.9099,17.3894,32.8231,30.2664,39.7830,40.8740,46.8085,40.4167,37.8852,41.2930,38.1998,40.5647,38.9403,35.5705,26.8566,21.1254,6.1457,-0.6234,-1.7859,-9.8544,-19.3312,-11.8656,-7.5674,-5.4464,-18.1728,0.7210,10.1420,9.5543,13.7934,18.2463,21.8000,30.8842,38.9141,30.8754,32.2804,22.3050,29.4575,25.2763,32.4472,34.1767,37.8237,19.0166,21.4823,16.1660,7.1183,-0.5989,-4.4619,-7.6173,-8.1780,-5.0773,-8.7593,-14.5834,-6.1161,6.0796,7.2021,8.7084,6.5611,19.5055,19.5999,8.8463,12.8760,22.4186,29.5643,24.5911,26.7518,35.3116,16.4036,17.4762,28.4071,17.2539,12.8496,17.8933,-1.2782,-4.4396,-6.1114,-4.2183,-7.4388,-9.6581,-6.8010,3.1196,7.5541,-0.0130,6.4590,15.0480,10.1328,15.0892,22.4191,25.4077,27.6777,38.1711,32.3338,41.2792,35.4783,26.3617,36.8697,21.5014,30.5795,22.4290,22.7070,16.9490,21.3372,4.3045,0.6516,-0.4994,-5.8435,-9.7723,-9.3438,8.1679,0.1294,9.4439,9.9913,9.1973,12.7905,18.1538,35.7334,29.8295,38.6418,36.2619,40.0501,36.8665,36.7370,29.4604,15.6826,27.4974,16.5945,9.3912,9.9752,13.8555,4.1569,-0.2757,4.4951,-10.2545,-12.7031,-8.7248,-1.1123,3.4018,14.3588,11.8271,18.6350,13.3083,17.8074,22.5233,26.9528,28.8101,29.9286,25.5811,9.1630,16.4613,17.1241,17.0317,16.3812,16.0502,2.3952,-10.2625,-1.2915,1.7834,5.8766,-3.4716,-5.3786,-3.7131,14.6667,16.8708,0.5348,7.7493,13.4292,21.6403,20.0859,30.7184,30.5777,29.3502,42.1106,47.8484,37.4686,50.0932,50.1500,44.7769,41.3376,34.8625,19.7155,23.3235,13.7777,11.6961,21.6944,7.8904,8.7709,13.1426,3.2600,7.2728,5.5236,10.6244,2.4775,5.4877,4.3831,12.3645,24.2441,26.0841,24.7272,24.1574,32.5209,22.6696,32.9855,32.9867,24.4565,16.8292,9.9071,14.5586,13.4499,11.8215,0.0944,13.9083,14.1997,15.9156,13.0733,12.0438,1.5835,2.5711,1.8861,1.9626,-7.7259,4.4313,7.8050,6.6653,25.9111,24.6068,23.9470,37.8496,37.8955,40.6465,35.6854,19.4654,32.3801,32.1419,19.6761,21.2860,27.6645,22.4508,18.0160,5.1671,-0.1536,4.8638,-2.4612,0.0708,9.6182,-5.9143,0.6590,0.0130,19.4064,20.6464,16.4142,15.9810,19.7858,38.5622,43.6928,51.6287,38.2155,35.9814,42.3424,38.1965,30.5623,25.7349,21.9331,13.8428,3.4889,8.0104,5.7498,-0.3647,-5.5283,6.7976,12.8767,5.7078,9.7289,4.8806,6.9054,16.2038,21.1709,19.2678,23.8225,25.6656,37.0483,41.3909,39.8335,42.2178,49.4170,42.8290,29.1513,36.3521,16.5614,14.8640,22.7920,12.0724,-9.7340,-3.3128,-10.3295,-2.9054,-2.1575,-10.1084,-6.0903,7.3113,14.3553,17.8158,21.8889,36.4545,33.0818,37.3016,37.4339,37.6279,38.0690,45.9643,32.1091,44.9055,56.9421,46.3052,41.7880,37.5746,27.7712,25.2311,7.9942,-8.1624,-1.7147,-4.8568,-6.8495,-1.9164,-1.6821,-1.4869,2.2637,-1.6552,-1.5262,13.9043,0.6216,3.2337,18.5796,11.6649,14.7210,16.8985,27.0364,24.8315,23.6217,27.1797,16.2414,18.7420,15.2775,18.1990,21.0930,2.2701,-8.4926,-1.4281,-7.2819,-9.0293,-5.7485,-12.4430,-14.3754,-5.1673,-1.4728,9.0624,10.5660,16.5798,8.1195,14.8208,18.8510,27.7711,27.6259,44.3003,43.2738,53.4866,33.7471,32.7698,27.6932,29.6968,26.0926,26.2252,16.5723,8.1103,10.0961,6.7804,0.0548,-7.6088,-5.9473,-14.8934,-10.4112,-14.8360,8.3657,0.5641,-0.9535,-2.7326,5.5458,10.9309,35.0423,30.5029,29.4156,21.3831,21.7307,37.0219,35.0854,34.3484,32.1493,23.8399,25.8388,20.4301,24.0026,17.6430,13.1664,3.8755,7.5434,-6.3275,-7.1804,11.6771,9.9460,8.5482,17.2732,18.5232,15.3128,28.8458,33.1252,35.7737,44.8919,43.6030,35.7043,40.3701,47.7672,35.7305,38.1024,29.9240,17.3448,13.8846,12.5313,7.9844,7.3301,11.5053,4.8497,-3.7275,11.3928,-11.2974,10.4327,0.1109,6.8477,6.8599,19.6528,15.1150,30.6910,33.1180,24.1764,24.3346,23.5506,29.0328,22.0083,24.8520,20.7897,27.7991,26.4982,16.5150,13.4324,14.4254,11.2716,-8.9144,-15.2551,-2.0870,-7.5056,-3.9300,-7.8461,-8.2546,-23.1060,-7.0229,-5.6301,-4.7487,11.3611,25.1781,30.3591,14.2781,22.6229,38.1265,29.1651,34.8816,30.1847,29.6692,29.2035,28.4269,30.5092,15.4486,7.1450,11.3747,5.0309,1.8916,3.8863,5.3919,7.0192,-2.1549,2.3698,0.8511,-2.3423,-5.1679,-0.1099,-1.8993,11.9254,25.4146,29.4191,26.7143,33.1631,27.3978,39.6948,37.2439,30.3506,35.3792,22.6531,19.2914,10.6820,16.9713,17.1980,12.4224,13.0329,-5.5284,-7.3076,-0.5141,4.9715,6.1821,-17.5638,-4.7210,2.1971,18.2147,8.9937,18.4642,32.0599,27.8078,33.0063,35.4401,31.8302,41.1760,40.0257,42.8038,42.2746,36.0013,34.5491,40.3613,28.2088,34.4285,23.4965,17.1558,21.8323,20.8115,2.4540,17.8987,13.8822,15.5868,35.5282,27.3436,30.7372,30.9038,38.5286,47.7842,52.7194,50.8849,50.2902,60.3947,70.6769,56.3755,36.0292,44.3245,40.8311,37.2161,27.1891,27.9386,25.9818,18.1617,3.8039,4.6678,8.8137,10.5896,12.1541,20.8091,15.1968,16.1820,36.8448,30.1562,37.6360,36.4403,40.0041,37.7916,44.2175,41.6232,47.6892,45.3705,40.8716,50.7580,49.3479,29.0206,26.7746,20.0816,21.8304,17.1692,16.8763,22.2376,19.8004,13.2406,10.1962,9.7163,17.4400,24.4268,11.6163,22.8871,23.6963,17.6657,21.4432,24.8890,15.1676,17.2541,25.0454,38.4311,42.7282,48.7975,45.2111,50.2357,36.0477,40.4136,32.7546,34.9946,21.2198,2.3841,9.0435,-8.3844,4.1434,-4.8537,1.7012,-1.3963,3.2458,13.7270,9.8080,13.2585,11.2995,17.8010,20.8947,35.0089,41.6593,28.0508,40.9598,40.1479,44.4737,40.1635,40.5908,52.4311,42.0289,34.9660,25.7681,32.7436,28.3339,30.0867,26.7045,14.7226,-3.8166,11.2819,5.0685,-6.5818,2.5733,7.2237,13.9296,11.6017,23.8043,25.7503,20.0172,15.1621,35.2030,36.3218,27.6853,26.4832,36.6209,37.0595,36.9733,22.7424,20.9894,23.0476,16.5560,19.0702,6.6358,8.9106,6.3339,-1.4774,1.0177,-0.9390,-2.6834,11.1172,17.0287,18.1187,3.7367,16.0429,28.6070,24.8455,27.8441,28.0156,38.8468,29.8803,33.5595,42.1948,38.2553,40.4299,43.1834,35.2556,31.2788,31.6478,22.9864,16.5967,1.4086,-9.4751,-6.5960,-15.2526,3.3146,8.9229,13.7928,15.4774,12.6442,18.7668,9.6429,33.5428,20.8332,26.7332,20.1298,31.3395,39.1146,36.7395,29.2684,37.3640,24.6801,18.2416,30.1377,15.6943,2.8059,15.3498,-2.0447,-0.3566,-15.0045,-18.0722,-12.0325,-3.6899,-15.3118,-21.0098,-12.4347,3.3497,13.6852,9.9888,-4.1784,6.4414,1.1006,13.9054,24.8657,31.9329,21.8190,26.1811,28.0263,17.4290,14.3932,12.2387,-2.1163,3.8560,-8.3505,1.2224,-0.0292,-19.9119,-14.0281,-17.7087,-15.2484,-14.5327,-14.4668,-16.1965,-1.9948,-7.3895,-2.0926,10.4565,21.6903,19.3918,17.6138,20.3526,28.5272,27.3280,21.5479,19.1104,24.0079,16.3139,29.3937,20.7916,12.3849,0.1221,3.4940,0.2632,0.0944,-17.6745,-9.6465,-19.0270,-15.8924,-17.6644,-25.9017,-15.2891,-1.7023,0.4820,-3.3550,6.2968,4.7248,23.4373,16.8110,22.7539,17.8636,22.1281,15.9140,28.1387,21.8042,17.0270,20.7080,21.5230,12.7341,10.8407,18.9654,3.4137,6.6199,-9.5121,-21.2689,-25.2810,-19.9667,-15.7837,-8.8167,-6.4179,-3.6133,3.2652,1.9882,9.7176,27.4874,21.2475,23.0740,38.6246,31.5551,41.8260,46.3123,22.2920,22.5001,14.0252,16.3948,16.0094,4.0260,4.6783,13.5869,12.0014,10.1539,-6.8183,6.2010,2.3986,14.3658,13.6700,20.1230,17.1670,17.5329,19.8164,25.1466,21.4281,28.8986,36.0525,39.5980,42.0038,43.6221,45.7525,38.0940,37.1738,28.4072,35.0190,17.7378,15.9527,15.0042,2.7875,4.8119,-2.6199,-8.8315,-12.9106,-6.0576,1.2661,-2.2275,2.0489,12.0025,12.5089,23.1615,14.0300,19.9550,21.4466,19.9001,27.9834,22.3418,29.8426,31.9435,27.4829,29.7095,17.1516,12.6251,11.9457,8.0809,-4.2597,-0.3205,-13.0749,-6.1218,13.3634,6.1332,7.0079,13.6886,9.9611,12.9359,17.0372,33.1863,32.5868,31.1378,38.8859,48.8018,48.7875,45.8105,49.0154,49.3230,41.8402,38.3626,34.7883,38.3348,37.1776,24.2230,29.2295,27.7580,26.5330,10.1738,13.9253,6.6339,-2.5234,4.3677,10.2161,19.0396,23.4815,21.6449,16.6120,16.2731,24.0617,29.6617,27.6550,29.3046,36.4146,45.0765,51.1009,36.6258,24.9959,21.7776,30.3751,24.6137,8.0950,8.5364,5.2552,3.8226,2.8107,2.1378,-4.4460,-13.4981,-6.6003,-0.9541,10.2230,1.8718,7.1065,11.5173,14.4979,31.0044,10.2943,19.4968,25.0224,25.5079,20.1557,18.4535,31.4744,28.7098,20.1219,22.1838,21.1416,20.1705,7.9641,-1.7966,0.9287,-8.7550,-2.4339,-2.8621,-4.4414,-2.4580,-2.9948,-8.6199,6.4689,8.2106,12.7470,15.4053,11.8259,20.8333,32.5504,29.7928,30.4650,28.9833,31.1166,30.5750,25.9700,16.4494,14.9368,20.3290,9.5257,-3.3366,4.9148,-0.4110,-0.4937,0.2024,7.7859,6.2472,-3.8338,-9.1322,5.4782,-3.2976,8.8441,15.1003,32.8828,23.0864,29.1877,21.2690,28.9775,27.7506,35.6361,32.7613,36.2536,35.6386,32.0740,34.5168,23.3233,19.1231,21.0943,17.1325,12.1150,6.9417,-5.8327,-7.1841,-11.9904,-10.8192,8.4146,-4.9439,-13.1866,-7.9132,-5.4971,0.8894,3.9735,23.8618,31.7198,37.0653,37.2622,42.3634,38.8867,24.1695,26.3138,28.0565,28.6093,25.0269,5.8240,11.0716,10.0256,7.6122,9.7936,-7.5887,2.0182,-0.1010,8.4178,-4.2595,17.4240,13.6284,21.9909,20.2819,27.4834,26.8312,23.2293,39.3261,42.7408,38.0448,50.6547,46.5545,44.2244,41.5008,36.6979,44.1340,32.9373,13.7544,1.8521,-6.7451,-3.4296,-3.1221,-4.3049,-10.4979,-19.3550,-8.8464,-20.7414,-23.9940,-12.8730,-9.0765,-4.3001,7.4688,16.4561,7.1111,15.3647,6.6260,13.0330,22.4325,19.3992,5.2268,21.0600,19.8051,10.6499,11.9289,14.2315,6.7374,2.7383,3.6976,-3.5386,-10.4541,-3.4669,-11.1778,-13.9593,-2.0855,-3.1562,-6.9330,-4.2650,-3.9623,7.1848,7.5111,0.0386,14.3443,19.8815,26.6151,24.6305,27.5375,24.0729,32.0376,32.0351,40.1580,27.4586,30.2484,10.6636,13.3964,9.2295,0.8341,7.6804,9.9024,2.5086,-9.9914,2.8309,8.6454,4.6871,9.6323,-2.5044,2.8382,7.3719,8.3782,13.6148,11.4515,24.5365,26.1415,33.8442,34.5143,43.8866,35.0687,39.5864,37.8244,27.7450,15.5963,9.7957,12.0908,5.1953,7.9444,4.9393,-12.5142,-10.4515,-8.1200,-8.5403,-11.0967,-10.4906,-11.6871,-2.3813,12.8298,17.2919,26.6038,33.9613,33.7773,31.1546,35.7723,46.2572,27.8603,36.0771,39.8598,31.1072,21.6273,19.2672,16.1809,9.2400,11.0288,8.2025,13.1221,10.6046,0.4450,-1.3085,3.9970,9.5723,7.1756,3.3593,3.4156,14.7087,16.3162,20.0953,25.2689,32.3982,38.7878,40.5957,51.9053,46.1054,36.9729,29.4345,24.5816,14.1042,7.7907,24.3181,14.1612,3.0818,5.8312,-3.1091,6.6838,3.7397,2.6993,10.6444,-2.1184,-6.8280,1.5969,7.8442,10.8376,14.9632,29.1331,34.4835,37.4061,38.5131,43.9136,31.9309,39.3917,36.1266,31.3577,26.4745,12.5941,14.3147,7.5969,2.6873,-5.7477,-11.8029,-4.2215,2.6089,-4.0038,-1.1593,-10.3969,-3.8596,-0.8145,3.1387,3.0007,3.4650,-1.3874,15.7045,19.6636,43.1319,41.9953,49.5526,36.1034,37.0257,36.0304,27.3372,32.2231,27.4848,30.7823,27.3703,11.2855,24.0204,27.0161,8.7094,12.4396,2.9598,17.7415,2.2003,-11.9184,9.7747,9.8304,12.6033,0.1999,14.3165,13.4621,4.4454,12.0795,11.1177,24.2142,27.4462,30.1133,31.9259,29.9022,27.4586,19.8338,13.9159,25.9005,6.6024,9.2321,-1.7438,4.4747,-5.0087,0.2285,2.8468,-15.6932,-8.0783,8.8596,3.9374,14.4552,7.8294,12.4179,14.2496,25.4957,39.2060,40.7729,50.8872,49.9770,51.3603,38.4268,39.0343,37.1682,30.6864,19.3651,16.7187,2.7729,3.7181,4.9875,-6.1189,-19.5292,-14.8201,-22.5479,-24.0267,-20.0781,-14.9743,-22.8897,-27.2957,-23.6715,-19.1253,-3.5527,-0.7920,8.9034,4.2831,13.5538,0.1963,9.1376,15.9127,17.3370,23.5962,18.1766,19.7654,13.9004,-1.8410,0.2783,8.6358,1.1528,-0.3248,-1.6170,-6.2160,-10.1783,-6.1736,-0.5844,-2.5343,-1.7152,-4.1779,-3.9847,7.9211,5.8926,1.9593,12.9985,20.3514,33.1391,27.0792,31.9648,40.6443,19.2838,16.2361,20.7444,10.4525,0.7856,-1.3111,-12.5175,-9.0795,-19.6510,-12.1065,-8.7864,-25.8775,-18.3845,-22.0863,-15.7818,0.3729,8.8633,12.2061,1.1408,20.2053,19.9108,14.4878,24.6826,29.8481,33.6359,41.3730,29.1325,18.6184,27.5375,18.9227,19.0037,20.9955,3.2512,-3.8142,-9.5813,-6.6337,-21.0160,-28.5906,-23.3851,-22.8388,-18.4983,-14.0522,-17.2892,-11.6301,-5.7754,-2.5193,2.8916,6.4638,16.7287,10.6056,-2.9802,-6.8322,-7.7215,1.7186,5.9773,-2.7345,-3.1394,-14.8579,-20.5003,-11.3749,-19.8648,-31.5554,-32.7211,-22.3017,-24.4605,-36.3361,-39.5847,-35.0297,-22.7965,-21.4362,-35.1092,-24.1040,-27.6704,-15.3568,-12.1155,-2.1960,3.4409,3.5196,8.0350,3.7901,-7.0036,-2.4572,-2.9606,-1.9351,7.2600,-5.0144,-12.4716,-15.4641,-11.1946,-9.8493,-23.3048,-24.4818,-30.4274,-36.0970,-41.7334,-30.5786,-22.9442,-4.8524,-1.2323,-3.1089,4.7146,6.4494,2.4827,8.0027,32.5916,29.6605,34.5415,34.8219,35.2579,24.5796,15.8233,18.3670,16.0280,3.6699,-0.6619,-15.5324,-17.8629,-19.4180,-25.0268,-7.5580,-11.0868,-8.0454,-16.3130,-18.9680,-17.7460,-7.0366,-10.0463,2.0500,14.3237,23.5169,17.9992,25.7578,23.1476,25.5234,23.3268,12.5446,9.3114,18.2309,13.4313,14.4742,16.0709,14.1550,-4.6811,-0.0168,-9.4234,-11.1396,-2.9877,-8.6400,-11.6401,-3.6693,-6.9960,8.3734,4.7304,7.0176,15.7712,19.2428,21.8424,16.9360,13.9161,21.3919,30.5268,26.5279,30.1726,25.3888,19.8922,23.0969,16.5782,10.0985,-2.0959,-4.7754,-6.9890,-11.6606,-18.9181,-15.4489,-19.3807,-23.1220,-14.7130,-19.4665,-32.8962,-30.3996,-15.4028,-3.6330,1.1574,-1.6492,13.7921,13.8783,14.7438,21.4993,23.3500,29.4044,24.7153,27.1046,21.6978,15.8104,5.9325,8.4977,-3.6012,2.6412,12.6656,-4.5779,8.2246,8.4026,-1.2408,-2.1674,-5.4807,6.0294,3.7655,18.2696,24.6953,12.5462,6.2696,12.7597,17.0182,8.2429,7.7990,8.6048,16.0129,6.8493,16.2129,12.7238,-1.3748,-1.0948,-0.1561,-0.9868,10.5160,2.7426,-16.0542,-19.1815,-22.5063,-21.1617,-25.3813,-23.5066,-14.3004,-8.2096,-2.2617,-11.7322,-9.8300,-2.6801,6.9194,21.0910,22.8958,30.2419,34.1161,17.9962,23.0271,27.1794,16.3697,28.3954,20.3843,23.5811,7.0718,2.5115,0.2193,-0.0405,-15.7667,-18.1046,-30.8903,-19.9270,-29.7536,-14.7945,-4.5709,-5.7991,-3.2146,2.4905,-1.5937,0.0037,13.0321,19.6712,20.9775,19.4192,21.2887,25.2507,26.9519,25.4527,20.9877,2.5860,-1.4468,-5.7770,-11.6436,-14.1753,-31.1994,-30.3608,-28.0539,-15.9848,-23.2589,-20.4102,-14.3790,-14.3361,-3.7223,-12.9053,11.2873,9.7244,5.0358,16.1871,21.6427,24.1296,19.5441,22.4226,24.0085,14.9049,19.4425,23.0340,29.7593,18.0890,12.4930,12.9994,10.5659,-1.6160,-0.5961,10.1742,-9.6649,-8.5953,-5.5195,-11.6534,-8.0508,2.7682,-2.6199,16.2109,9.6739,3.6823,22.1480,26.6506,35.5038,22.6484,34.6002,21.2366,18.6135,12.2100,10.9535,12.0758,-3.1210,7.5791,5.4879,5.2113,-9.3663,-15.4538,-15.7679,-6.5175,5.4236,2.2913,1.3741,1.5963,4.0348,17.7651,28.4343,17.7319,21.3540,21.4517,36.8041,40.5198,32.4518,31.5413,32.0796,36.3699,23.9703,21.7989,14.8935,-7.6654,2.3053,9.2576,13.9222,7.1242,0.6189,-10.8542,-5.0044,6.9152,-0.7219,-2.9112,19.5889,10.3492,13.7245,16.0255,24.3725,13.9647,21.3242,29.2408,32.0259,34.3436,30.5173,28.6732,25.5810,19.4441,19.0595,14.4673,14.0832,16.0248,7.1075,4.2887,-1.7156,-10.4898,-11.0374,-2.2724,-9.8313,-4.1178,2.3463,6.0963,5.9192,18.1891,11.9868,14.3998,25.8732,25.7621,27.8306,23.4142,22.5028,24.4570,21.1734,15.8620,22.3084,21.3177,35.4234,25.3354,15.9836,-1.2339,7.0766,0.3363,11.9575,-0.2292,4.4722,-6.2915,5.0674,-6.1049,-2.0725,6.2240,17.8212,16.1410,18.7498,37.2110,21.1048,39.0168,28.0285,35.5960,37.2646,36.3381,31.6528,39.2012,24.9928,14.9294,9.2394,12.6310,9.4023,9.8682,2.6346,15.2589,-4.2790,-8.2136,-1.2262,-4.3623,-3.7416,1.7645,-4.7968,11.9614,-1.7256,3.3435,11.2875,16.5186,7.5167,5.2747,24.1728,16.7604,19.2079,14.2849,17.6424,12.8255,10.8828,17.0118,9.5508,5.5900,-0.3971,1.9426,-0.2675,-12.8520,-11.3468,0.5692,-5.5391,-3.1131,6.1441,1.4707,-3.3861,-1.6670,-3.6893,2.4856,8.5785,9.0259,19.4762,26.7913,13.1760,32.1623,29.8589,13.4389,12.4429,11.3759,4.8060,11.1168,4.4363,1.1326,-10.7340,-7.4264,-25.5529,-24.8054,-21.2105,-9.1609,-5.8831,-15.4806,-12.3980,-15.3093,-20.7949,3.1457,8.3641,15.2088,25.1217,8.8539,11.2966,11.8717,23.3867,18.6064,11.0667,10.9761,19.9876,9.6015,8.2381,6.4107,7.2327,-7.6273,-10.2784,-26.1284,-21.4861,-4.0883,2.9536,0.0180,-10.4966,-8.5304,-5.9078,-3.3162,6.4899,13.7850,14.9211,12.8087,24.2122,16.2119,28.5154,28.0824,30.1370,43.7750,38.6994,44.6726,38.9633,22.8764,20.1611,5.9874,11.9457,12.4493,8.7272,6.4083,-1.5096,3.7553,20.1314,18.7303,14.2260,12.8828,15.2434,6.7294,13.7622,11.8241,13.8099,22.3946,28.3208,26.8525,13.8236,11.0239,17.6171,14.6828,22.5822,12.1739,2.0348,1.2347,3.4868,1.8904,2.3555,2.3286,1.0153,-2.5600,-15.5977,-2.5839,-4.1165,2.3248,-1.2487,-6.1449,-2.1968,-13.7126,-2.5074,4.6510,5.7959,9.1444,12.2673,8.1367,-0.7402,10.0690,9.8696,-3.3354,-8.6851,-18.7525,-17.3352,-15.5664,-8.6573,-11.7578,-6.1560,-0.1376,-15.6218,-9.4626,-8.8724,-11.3103,-0.0564,6.2648,2.0300,-17.1338,-2.4366,9.1322,11.8130,10.7282,17.6347,32.4594,31.2144,28.3167,23.6495,15.3375,21.4890,28.0341,30.6828,21.7544,33.2268,13.1649,2.7711,17.4311,5.2949,-1.2073,-1.8743,-1.7897,-12.5528,-11.5183,7.9986,5.1008,9.7552,19.9317,19.6452,13.9412,21.9590,17.4705,18.3334,21.8864,25.1938,23.8470,29.1794,18.2231,23.7908,26.0120,23.0048,3.8233,13.2189,14.2027,6.7908,1.6551,8.8304,8.6696,15.7256,10.6702,8.1154,7.4589,17.0563,15.7464,20.5107,21.6992,23.6667,38.2504,41.0695,31.3540,43.1328,37.2007,25.0643,13.6483,18.2296,24.4289,21.5206,11.7928,6.9752,0.5033,7.9638,6.1868,7.0701,11.5671,-8.1053,-1.5687,-8.8171,-16.1520,-11.8531,-13.7854,-5.1010,5.2310,11.0167,7.0068,28.0125,23.0479,22.3124,37.9781,36.6495,27.6471,26.7696,28.9242,34.1190,31.9872,41.5955,24.6466,25.2545,6.0564,0.5415,4.6769,12.4612,-3.7504,-0.0645,-3.0290,-0.6029,-7.8948,-5.9509,-1.4085,14.4433,3.6028,0.0277,12.6544,8.7964,20.6803,31.3616,13.4466,15.1428,14.1173,20.5719,15.4131,8.3026,7.7324,5.8346,-8.6075,-6.5923,-4.5794,7.9625,-4.0853,-5.2497,-13.5498,-9.6639,-14.9677,-5.2010,7.4118,10.4052,8.5856,7.1224,13.0140,17.0302,22.4964,22.8262,32.1893,32.6061,50.1835,44.2980,43.0734,34.8954,27.4510,25.9408,20.9068,16.9933,8.5384,10.5610,6.0906,6.6488,-4.2581,-12.9958,-4.6875,-4.4527,-22.5469,-11.6304,-0.2173,2.0489,9.3001,7.8450,16.4701,25.8702,18.5166,30.6291,35.1947,28.4454,38.2385,30.9383,19.2967,18.9429,3.2923,2.1381,8.4262,9.6120,9.0636,-4.6202,3.3894,-13.5947,-11.0455,-2.0440,-0.0820,-0.5935,-3.7682,-1.5984,7.5235,9.5970,7.0103,11.4468,11.5993,12.7184,23.4926,16.5259,26.4181,15.7216,25.6449,17.3201,13.2423,18.9343,13.8657,5.9092,1.9424,2.1472,-8.5624,5.6274,0.7298,1.0381,6.9112,12.9460,2.5988,-9.6194,-8.4474,-12.2560,-2.5281,12.2647,16.9390,23.4558,25.3602,26.1772,32.4554,25.2258,37.0389,35.9922,28.0435,24.5436,26.1628,18.9950,12.3885,11.8516,9.6283,-2.8549,-1.2454,-7.9755,-7.9994,-12.7418,-8.1146,-0.9275,5.6357,3.7977,12.0233,9.5496,14.2450,18.0811,19.2543,23.3318,30.1358,23.9524,33.3043,26.3305,30.3457,33.5328,22.2539,23.1956,21.9071,18.5208,15.2108,2.3037,7.2144,6.6591,3.3221,-14.0618,-2.0024,-8.3840,1.7773,-3.0081,15.9590,4.4192,5.1232,7.5418,11.1953,12.3120,24.5009,24.5714,24.9653,29.4067,24.5948,23.9985,18.8085,23.3863,32.8262,25.9833,19.3369,15.3057,9.4883,1.8785,4.9736,-9.1020,-2.9116,3.9510,-7.6429,-5.7110,-7.1356,-0.1590,-4.6513,-4.0227,0.3799,0.2981,6.0174,8.9568,19.1787,18.9446,20.4298,26.0618,18.5793,25.8830,25.9743,15.6586,19.0281,16.9034,9.6423,-2.2567,-13.3649,-8.7951,1.1403,-9.9658,-8.0376,-12.8516,-15.7998,-11.1639,-3.6972,-6.2233,1.6416,6.8047,13.0160,11.6893,15.1720,24.1442,26.1370,33.8813,34.2275,29.8876,34.9084,15.5533,16.3772,18.0796,-0.3351,6.9417,2.2395,12.3130,-2.5445,-4.1363,-7.6777,-7.9784,-0.5430,-4.2280,-7.7987,0.2320,4.2411,7.0557,12.5445,17.5874,7.5037,12.3906,14.8706,24.7193,29.3752,33.6846,41.7626,39.1411,36.1227,33.7091,26.5998,25.6338,13.0400,7.8570,1.1288,-8.8095,-11.1064,-16.2351,-5.1841,-7.9061,-9.1169,-10.0359,-6.6209,1.1827,8.4951,11.0826,4.0352,14.2419,7.5659,9.3961,28.3769,28.0641,26.4332,31.2169,40.0165,39.5798,28.1667,31.0583,25.6816,18.1569,15.7608,12.2955,0.8411,4.7174,-0.0988,-5.2967,-12.7177,-6.6326,-1.7042,-5.9954,8.4322,6.2925,6.0350,-0.5283,13.6677,14.4453,27.3369,24.8554,27.5334,38.8239,28.6493,26.9187,22.0288,19.1864,12.3180,9.4371,2.4850,1.3671,-4.0179,6.3231,-11.9319,-28.8515,-31.3219,-28.2606,-32.3679,-17.6781,-21.0151,-2.7182,-5.3708,-10.0084,-12.1644,1.3508,4.2825,8.7752,14.6743,4.9703,2.1510,8.7712,3.2104,-0.6648,-5.4423,-11.4250,-2.0092,-4.3693,-10.7236,-20.9294,-19.6309,-30.4248,-27.5124,-28.4113,-27.8392,-29.4689,-24.9923,-22.9606,-20.2865,-15.9693,-10.0311,-13.1987,0.2978,-7.0868,15.8935,-0.7736,3.4305,10.4943,2.6164,1.8075,2.7602,4.5386,1.3000,-4.6943,-2.3578,-5.5476,-6.9185,-13.6091,-19.8857,-6.2048,-13.5423,-39.5356,-35.4442,-26.2802,-20.8207,-28.6304,-31.5022,-19.3901,-11.3894,0.7555,-0.4370,1.1962,-3.8203,-8.9621,11.1233,8.9827,2.6701,9.4072,3.9518,0.7282,1.0501,-12.0729,-9.6810,-25.4719,-18.3785,-28.4658,-39.2687,-34.0317,-36.8609,-35.3802,-28.0974,-25.2471,-17.7237,-4.6943,8.0842,7.3095,2.3974,-0.4292,11.6717,-0.9861,15.9794,24.6265,22.9076,31.3614,30.5292,24.0348,23.0197,12.8557,10.5743,4.7278,6.9090,-5.1344,-7.1038,-5.4934,-5.7262,-12.2676,-21.3480,-18.0660,-4.1806,-6.7967,-2.6938,4.1491,7.1832,-1.3354,10.0674,10.4180,24.9672,37.0213,32.4841,28.4287,23.7193,20.3231,18.8264,13.5137,17.4141,17.1707,20.5348,19.9291,5.4520,6.8368,3.9840,-8.6730,-21.7785,-13.1303,-8.6238,-11.1492,-11.8955,-15.8438,-18.1547,-10.5284,4.1598,-0.6516,21.9048,21.3025,18.9420,22.2922,23.8004,30.7334,31.5978,30.3845,19.2101,12.0450,13.4553,16.9612,13.4215,0.5447,5.7227,-11.1264,-1.1439,-2.3196,-0.2958,-2.9706,8.7251,8.8340,13.3769,-3.1429,7.9230,10.5368,5.4263,22.4177,29.7149,32.1407,31.8328,23.0008,22.0714,23.6006,30.3806,29.7159,21.9877,18.0241,5.4034,2.5865,-11.0430,-22.1315,-25.5495,-21.3147,-29.4005,-23.9320,-12.2630,-2.1898,-8.7023,-13.6634,-17.9519,10.6290,3.9494,2.1314,3.7236,4.0271,13.5527,22.5114,27.3252,26.4498,29.4466,23.4049,17.9518,22.7359,8.7153,10.0798,11.4148,0.7203,2.6142,-1.3958,-8.2364,-6.6931,-18.2478,-11.8457,-10.9214,-1.2858,-1.5302,-3.4888,-0.3414,14.6101,24.2551,34.1646,23.4151,33.2678,37.6009,35.7512,23.3363,16.5634,17.6920,24.2150,11.9318,25.3582,12.4953,7.6183,15.1614,12.5918,7.3275,4.8083,3.3068,0.4556,-9.5407,-9.3208,7.1266,6.1290,8.6710,11.9804,7.0191,14.3076,22.1846,23.0852,34.5084,32.6281,37.8796,42.7710,48.4171,45.7383,24.6448,30.7023,26.0922,11.9957,10.1015,13.6775,-5.5284,-5.0212,7.7883,-9.6255,3.7878,10.1023,-3.5539,1.0204,11.5723,6.4568,7.5684,14.0468,21.7324,9.2544,14.7622,13.4266,19.1418,23.4398,21.2629,28.8228,14.7157,5.5926,17.5739,12.1272,18.5143,24.6568,12.0729,16.1328,5.5535,0.0146,-8.2923,-6.1851,-3.6888,-7.6258,3.6415,3.7933,16.0764,3.7888,-0.3908,20.0984,37.1600,29.1746,25.6191,26.6764,24.5028,20.5930,26.4073,32.7525,42.9324,35.6200,43.4747,38.8502,27.6754,26.1493,17.7215,13.0430,6.0834,8.9691,2.8999,13.9863,3.4653,-6.4258,-11.3027,-6.5499,5.0879,-2.5078,-1.9546,8.8901,17.4181,25.6595,31.3557,27.4741,15.4115,20.1295,9.1726,24.2503,8.6717,4.9296,8.4914,9.2331,0.9442,-6.8636,4.0420,0.1389,-1.8707,-5.9653,-15.9670,-15.2929,-2.3813,-1.3986,-1.4376,-1.0866,5.2820,14.9471,13.4078,32.6092,39.7880,31.8812,35.9027,44.7263,44.9894,28.2472,42.9324,37.2841,35.7267,28.6655,17.8456,18.9136,19.2022,7.4703,-0.3851,-5.1166,-4.3483,-12.3896,-10.4434,1.2842,4.2523,4.9116,1.0508,11.3442,21.0464,20.5285,26.1705,29.8454,22.5948,21.6271,23.1514,24.0050,35.8795,31.2515,36.1846,20.5987,20.8721,14.8892,3.5524,-9.3266,-6.3817,-18.0728,-27.6733,-27.7637,-16.1353,-12.1032,-3.9301,-2.7938,-9.0887,-10.9104,-9.6972,-9.9955,8.1731,15.8374,18.9731,21.4167,20.0530,27.8167,27.1820,17.4337,21.0262,19.2230,20.1631,16.6400,22.6412,15.4499,7.9843,-2.1262,-2.9857,-8.3731,-5.2006,-3.0658,-14.9334,-18.2516,-6.7897,0.5354,4.0499,-20.4335,-15.3947,-10.9056,-14.8036,8.9497,20.4870,18.8848,17.7272,18.8438,23.4764,19.1785,13.9037,9.9422,20.8912,6.0960,-0.1952,6.1740,6.1709,-8.0500,-8.8180,-12.4073,-8.1013,-13.5919,-10.6897,-1.5731,-11.2471,-6.6517,-4.7850,2.9530,10.8991,6.1856,17.6883,23.1157,23.5832,24.7091,23.5655,22.2738,18.7364,29.6277,27.1714,31.4878,30.1255,38.1391,31.1789,25.4122,17.6724,13.7019,6.2218,-3.0067,-0.7630,-6.7047,-13.1042,-8.2210,1.2569,3.0389,-5.9299,-5.0219,1.0966,3.4593,-2.5963,3.5739,2.7363,11.6472,9.8892,23.3206,21.3024,6.3454,16.4485,7.3058,4.0796,-9.7420,-13.8830,-13.0346,-1.4372,-12.6809,-22.8146,-18.7744,-18.6393,-26.1428,-28.6103,-17.6983,-10.0763,-19.3647,-3.9033,1.2157,-0.0417,0.2875,9.7848,12.9087,13.5989,23.5619,27.3212,31.2229,24.2544,13.9985,21.8329,21.9307,11.1602,5.2912,6.2009,-10.9812,-21.4949,-16.0289,6.7782,-3.1461,-6.9998,-5.6908,-21.1569,-6.0457,-1.6001,0.1009,4.8071,-4.4823,3.1329,6.5380,14.1376,29.8389,30.4274,15.3973,17.0830,2.4073,13.9975,24.9400,20.8491,12.5510,-5.1026,1.6367,-7.9562,-14.7164,-13.4496,-11.9798,-8.4141,-15.3474,-18.5408,-21.5690,-25.1656,-11.0844,-20.1147,-0.4208,-2.7634,-7.0261,0.5631,5.2322,6.2858,18.7269,23.0311,21.0656,18.3814,7.0688,6.8127,9.6636,10.7872,-6.6163,-23.3076,-6.3963,-6.3379,-27.6029,-16.7493,-14.8712,-22.9873,-22.4503,-15.5899,-9.1140,-9.0715,-1.7267,1.7726,7.2549,9.7118,16.6511,18.8527,30.1660,34.3250,26.3604,39.6366,33.1590,31.7377,27.2628,26.7623,16.4822,9.1012,15.1352,9.7088,-2.8646,-5.7708,-1.0616,5.9946,11.5001,-2.1316,-5.5160,1.5063,6.6191,7.2951,16.7387,25.6405,10.7066,24.4039,21.5145,16.1322,17.3227,26.0383,26.0232,34.1265,40.5911,30.7889,29.7846,9.8135,1.5447,-0.9515,-2.0566,-11.4346,-6.8742,-9.9783,-13.7981,-10.7169,-10.2211,-7.8694,-24.7920,-16.0754,2.2815,4.0304,7.4330,10.2070,10.1959,5.9060,18.0510,24.2501,23.1160,25.5700,25.1108,39.1878,25.2720,19.2840,18.2945,23.5875,20.6089,1.2250,9.1485,10.5022,3.7284,-2.6277,-2.2323,0.0739,-2.1576,4.0154,17.9268,28.8138,22.1581,26.7690,29.6446,20.9174,35.6171,34.5322,26.3427,34.0534,24.7221,33.6225,38.9964,33.6926,22.0374,24.3904,21.1050,7.2297,10.8741,5.6407,-11.3106,-7.6987,-7.0226,-9.4325,-6.7190,-0.2170,8.9206,20.0577,26.5803,33.4765,28.0687,50.8326,43.7113,35.4925,30.9065,40.3865,35.0599,43.5513,50.7809,40.5693,36.3561,31.8824,29.1606,28.4264,13.3293,3.1708,8.9978,-4.5829,-0.5004,-5.3549,-12.0127,-1.8125,2.0452,5.0548,3.5682,7.9390,19.8345,18.9805,22.0461,17.2038,29.0574,25.8298,31.0599,39.0335,48.9627,36.4057,35.2492,54.0530,39.2201,29.9800,26.3173,21.3333,21.8986,24.3816,7.3537,-3.2625,5.2738,-2.6969,-9.7198,-25.2278,0.6240,2.8279,10.8628,21.5794,24.7032,23.9212,26.5780,29.8210,41.9542,36.9733,33.7675,40.1514,30.2220,31.7901,37.7171,38.0973,36.1382,25.3915,18.5765,19.0435,23.7560,17.6034,17.1534,3.4754,2.8208,10.9890,0.5743,4.2363,0.1871,7.6337,22.1078,12.4591,23.1659,23.6600,41.3642,43.5603,40.0484,40.2823,22.7315,33.2953,28.1392,20.7019,17.5298,20.6884,27.8181,11.5499,12.4831,1.9968,21.5234,13.3381,0.3111,2.7771,17.5788,15.6295,1.5701,17.2038,13.9826,18.0332,19.1900,11.3651,23.3077,26.3957,28.7316,37.1656,40.6284,35.1944,28.3595,34.5855,41.4485,22.8832,15.3311,35.1357,23.8289,9.4571,5.2296,1.8003,18.9607,15.0383,-0.8994,-1.5851,7.2748,4.2144,-1.9508,3.2019,4.4139,-2.6766,8.1927,15.0810,21.0517,22.3595,39.7498,41.4770,35.8708,46.9150,40.3238,39.7023,38.4143,33.1104,27.9204,20.2151,10.7888,3.1528,-2.9615,-6.6333,8.8259,6.7445,9.2636,10.7729,6.5564,-6.1144,-2.8183,10.3337,15.7598,16.6547,19.8078,31.2060,36.8950,26.9733,32.3279,35.0079,33.8366,34.7970,39.3958,32.4855,24.9684,26.3950,18.1470,15.6567,6.2630,-4.6476,-4.0130,-6.4998,-3.7070,-8.2495,-16.9015,-3.0855,6.9169,0.4655,10.4406,15.8952,22.4584,31.6583,34.5491,33.6292,26.1437,30.8995,19.5554,22.0778,13.4337,12.3031,20.7506,10.2062,6.1299,10.4593,-5.4848,-8.5164,-15.1099,-17.8941,-19.5490,-11.8730,-16.8480,-20.2109,-14.3350,-15.3222,-18.8662,-9.7387,4.5638,11.2293,17.8543,25.8800,30.6025,17.2393,18.9693,22.6061,28.8553,34.6483,26.2750,30.2265,29.5234,19.3780,20.4234,20.0108,12.2321,22.5535,10.5141,6.8274,4.5779,3.3704,4.5244,6.1708,3.2482,-0.4866,17.6613,12.2025,21.2826,15.2235,35.7472,42.6490,35.9149,45.8496,38.0955,46.2286,48.1417,31.0567,39.4911,34.6522,24.4714,29.2769,19.5710,12.3595,31.2760,20.4718,0.5796,0.5133,2.1871,-5.5350,-0.5558,-1.5947,4.5837,10.5489,10.6545,14.1777,15.4507,14.3134,16.4134,23.0509,28.2312,35.5718,40.0494,44.1603,44.6585,32.5178,26.9202,25.9922,30.3071,28.2154,19.9536,18.5283,12.2633,21.7463,14.7630,12.9073,2.7923,14.7023,5.6831,16.3730,9.3229,9.0700,5.5667,13.2553,17.6559,18.0041,29.3062,30.7459,25.9250,28.7276,32.5803,28.1742,26.2205,16.6541,21.7743,14.1365,12.8387,12.1045,13.7576,8.8511,19.9041,-0.0817,-10.9401,0.5310,-4.5983,-11.0394,-2.0696,-2.8009,-3.4886,4.1287,12.6596,9.9751,25.2831,26.1381,14.2078,29.2815,30.4203,35.3481,35.9738,33.0076,24.7938,18.6190,30.3012,15.7536,18.6446,13.1897,6.4721,12.6402,7.4105,2.4286,18.0269,20.2955,18.1917,21.3782,22.5001,7.4282,25.9587,39.5982,40.7655,37.0065,43.6983,49.7510,50.3507,49.8862,31.9818,44.3478,46.4886,39.2779,31.6595,25.4825,18.1476,10.2345,1.6804,2.3583,7.8890,7.1901,-3.7399,3.6443,6.2062,4.0183,-6.7906,-1.5935,11.2456,18.3673,15.6522,18.5182,10.2489,11.5122,19.2134,21.4268,35.3842,28.2538,32.6323,30.8740,26.2999,13.1002,3.3788,3.7545,2.9511,-10.2059,-12.9491,-1.7001,-3.3332,-7.3482,-12.0283,-21.5477,-9.9076,-7.8830,-4.2793,-8.7095,14.4067,18.8038,17.8072,19.2931,19.7408,32.9950,49.3486,54.3001,39.0915,36.7296,42.1658,29.6083,26.2724,21.3085,21.9986,38.0135,23.1380,19.0007,24.6046,18.1588,4.5613,-4.0802,3.9364,10.5428,12.3793,11.2471,11.9027,14.7525,21.1371,15.9484,21.0310,17.0992,33.7154,28.0482,27.7160,26.5098,25.4647,31.1894,39.3392,32.9894,35.6295,28.8985,33.2582,20.2580,9.8205,6.4362,-0.9304,10.0402,3.1579,7.5932,10.6342,-1.5971,1.8106,7.4466,19.4268,22.3853,31.8691,21.5873,18.7980,26.6024,16.7684,27.3315,41.6786,43.5244,34.2951,43.1612,32.4884,30.1689,29.3956,20.1719,27.6707,22.7388,19.4095,12.3419,32.3137,22.4243,16.6785,15.4207,18.4404,10.3593,19.0844,13.4166,26.6856,46.9749,33.7284,41.2423,50.3611,62.0312,52.7672,53.3206,61.4930,62.0149,49.8409,43.1507,34.1660,32.9620,21.5825,15.2661,14.7039,6.4882,18.0341,7.5101,-2.6889,9.7016,5.8648,7.9025,1.1080,3.0426,16.9941,18.2336,9.2508,25.8502,31.5332,30.7878,33.4678,30.2715,39.1672,27.6560,27.2801,30.7773,30.0923,21.6574,26.4451,25.9621,18.9714,18.2084,15.5539,13.1549,11.0272,14.7792,6.7767,3.9557,1.2854,-2.1415,3.1027,1.1197,11.7679,20.0378,28.6715,15.3225,30.7428,37.9205,34.5807,40.8116,33.4393,32.8507,45.3999,30.5874,47.5928,44.3948,35.4741,27.1657,17.6954,14.2566,19.5876,19.5216,15.0010,8.6114,10.8431,15.7690,24.1043,31.0279,21.6173,31.4873,21.4260,33.9366,33.3176,40.5713,54.6418,45.0792,38.9658,43.9332,46.6498,37.9442,42.5554,38.1311,38.1111,31.0835,17.7651,13.9037,6.7220,10.2842,12.4501,-0.2771,1.7379,3.4618,-3.3039,-6.8497,-3.3177,9.7485,15.6180,16.2640,35.6848,28.5050,31.5622,43.8523,51.2194,46.2034,40.7790,50.7049,42.9231,33.8909,32.7728,47.1926,40.4588,26.0795,13.8142,9.4475,2.3140,0.0883,3.5110,4.3065,-1.4975,13.7356,11.0492,7.5432,13.0517,23.5813,15.0696,22.9280,19.1216,29.3954,27.1244,34.4812,34.4445,48.5368,41.7820,39.8087,38.6600,37.9752,51.9267,33.4997,22.6887,14.2393,14.2374,16.7171,-5.3842,3.5316,2.4140,-14.2126,-13.3595,-8.5263,-11.0254,-0.5743,-7.2774,8.0308,12.8517,16.5290,22.2841,20.6635,23.4344,22.1844,27.4313,19.6339,33.1684,22.9466,18.9546,17.8967,32.3681,19.3588,16.4682,10.5356,3.3171,6.5772,-3.4944,-3.5621,-4.4320,-0.4926,0.2850,1.0205,6.9366,11.5066,1.1935,20.1869,25.3104,22.6207,36.3879,41.6505,37.4209,40.6746,39.5169,43.8236,39.7742,33.7143,27.2807,27.8634,29.5033,18.6641,9.2444,-5.6953,1.3059,-4.5782,-4.1573,-11.2391,-10.1935,4.4802,9.7868,11.0822,13.2433,12.9606,22.8203,13.8368,30.5479,33.3000,43.9408,37.6521,30.2392,36.7647,48.9074,43.7185,22.9941,26.1969,21.9983,22.3143,10.8610,13.6946,7.7053,-3.8467,3.8979,-2.0510,-8.9444,-11.0677,-6.2922,-9.7568,-5.7404,-8.6848,4.7287,18.5531,23.5252,25.8763,18.8927,22.3687,20.3843,29.1721,26.2672,29.1034,31.9959,28.5260,31.4179,27.1843,26.9092,15.0514,11.2939,15.6890,-0.6121,0.9938,-5.9745,-15.3281,-11.0104,0.5160,1.5442,6.9245,13.7140,16.4510,15.1672,8.2241,20.7164,28.7273,30.5114,28.8403,35.5154,29.5968,30.9227,28.3889,19.1713,26.8946,29.3567,7.8771,12.4120,8.6767,7.5188,0.0875,-0.2952,-8.8794,-4.1552,-5.9026,-8.2053,-5.0290,17.0542,18.2824,12.6053,16.6379,27.4351,32.5354,27.6217,24.3920,23.8754,32.5367,34.0608,37.9940,36.5314,34.0813,27.5356,26.8697,24.6759,24.8791,8.4232,27.8697,21.3426,4.0157,-2.5246,11.4233,6.1476,12.0142,0.8220,-1.1415,9.6913,3.0825,2.3460,7.5000,-5.2151,14.2801,31.2898,35.1234,29.2169,49.3587,48.4143,39.1438,39.8567,37.5573,40.7593,33.0009,36.1691,40.5695,26.0834,22.8072,17.0755,19.2110,16.9520,16.8912,25.8957,12.6126,-3.0888,9.1709,21.0300,15.8517,10.1892,11.8285,8.0453,24.6282,19.0044,24.5775,32.2573,49.6709,37.4600,21.4329,33.4436,25.9295,25.0588,4.7133,16.5700,15.8131,6.3222,-0.6551,-14.6509,-6.4373,1.5625,-5.2214,7.6228,0.4628,-9.2301,-10.6406,3.8976,-2.7590,11.0087,16.8556,16.3236,24.8768,23.1523,30.3785,39.1348,38.6756,39.6692,28.9673,37.7432,45.6920,26.3031,25.8287,20.4671,17.8030,16.1117,20.9601,19.0927,7.2040,0.2729,10.3650,13.0919,16.4512,21.9485,32.6282,27.8556,26.4356,35.9270,30.4706,22.4912,30.7005,41.7559,25.3885,19.3444,36.4391,31.1878,29.2479,29.5535,18.8218,12.3224,14.6072,16.5376,15.6326,8.6574,-5.4953,-4.3434,-6.2086,-1.2100,-3.1544,5.6601,9.4216,14.0967,17.7330,10.3061,32.6771,37.7642,32.3035,35.2212,36.9557,57.7796,54.8746,58.9473,60.4451,52.1253,42.2847,41.1580,36.5484,39.6038,30.5876,20.0557,12.1690,0.2213,-2.9636,5.6979,9.8928,6.0535,-0.0113,6.2703,9.1401,15.0478,21.6991,21.4969,33.3763,27.5756,24.6411,38.0586,41.7411,34.3672,38.3737,39.7040,39.4156,40.0286,44.1002,26.2254,20.1483,12.3146,7.8755,0.0850,-3.8784,-16.4207,-7.8124,-9.6370,-10.4454,-5.0729,-17.0022,0.8849,13.6897,25.0193,30.4111,20.6896,24.8678,15.8805,31.6767,29.3126,32.5259,37.1952,31.9971,10.4243,14.4226,15.4815,5.0773,15.7945,10.5926,-3.1766,-14.7221,-2.0432,-7.3592,-5.9398,-11.0458,-19.0918,-13.7166,-18.0221,-10.3151,-1.0698,-6.0195,6.3437,1.1803,21.5227,15.7838,25.8130,19.2054,28.3437,13.7245,19.1689,16.1050,10.7280,12.2778,12.6154,8.8886,16.0980,11.6695,11.1697,-4.8047,-1.8732,-3.2184,-7.8680,-20.8861,-12.7055,-18.9783,-10.9693,11.0941,10.3606,22.1203,23.5197,35.8303,38.8846,36.0962,37.1244,39.1919,49.5083,45.7301,39.6642,37.3118,34.4933,21.7938,22.0500,27.1306,23.6176,15.8176,9.6713,25.0584,17.0072,22.9437,22.0546,22.0006,32.8826,30.8710,45.5344,38.6996,41.3539,43.7103,46.0691,51.5379,52.9683,55.4221,43.7952,44.8132,45.9957,49.4283,58.3292,43.6561,36.0227,31.6889,31.9004,21.5591,3.4404,-2.5720,6.7274,-3.2355,10.9437,8.6440,7.5651,20.4114,25.9896,19.9896,16.9288,23.9518,24.0949,29.7856,23.5230,32.0110,32.9225,39.0057,35.9540,28.0519,38.4650,36.9555,31.4889,26.9654,15.5019,21.5995,11.8199,5.6749,5.9927,8.6889,2.6008,11.5244,14.2535,13.2959,15.0981,19.1979,26.9022,30.7837,23.8460,40.3084,35.6855,37.7514,42.5072,35.4548,45.7523,45.3114,44.0475,38.0139,41.4018,43.0198,33.4033,27.8177,20.1156,17.9805,5.0905,11.3981,16.7007,19.8023,16.3601,13.3801,-0.2039,7.5663,9.7005,16.0584,22.1185,21.2328,24.6361,24.7201,29.7567,34.9497,46.8037,37.9883,42.8980,36.1924,33.5401,36.7460,31.9541,26.4163,13.1707,-0.6424,1.2160,2.6696,2.8281,-4.2266,-4.6097,-15.6619,1.0385,-7.6902,-0.8948,1.2457,3.1786,20.0964,20.7548,19.8273,32.6231,29.3332,45.3598,38.6526,38.9931,37.8433,21.9596,21.9754,33.5203,37.5971,34.0286,27.8348,23.0769,7.8199,7.8814,-4.5120,-25.1097,-20.5503,1.0232,3.3984,-6.5838,-10.3022,2.3762,8.4445,2.6999,8.6047,14.8075,19.3167,26.5172,28.9046,21.9913,38.6263,31.0198,28.2422,27.9502,30.6667,24.2738,21.2376,26.1239,15.3918,25.4141,32.0423,21.7002,19.1995,9.7475,14.4224,15.8128,5.4495,9.3665,6.3829,3.2586,17.3710,25.0651,29.1824,25.2087,38.6063,43.3057,42.1226,40.0368,27.7639,33.7283,34.3883,29.4141,35.8616,28.9512,28.3131,29.7114,23.0711,9.7951,12.2241,8.5853,-8.5072,-0.7122,-9.0341,1.9851,13.4564,9.7080,17.3605,19.5797,29.7204,28.7990,28.7790,37.1857,44.0811,31.5068,32.8971,40.5880,45.4865,52.1653,36.3069,29.4094,38.8743,30.8847,39.1432,28.0665,13.1234,3.6710,-0.9835,13.4354,18.2367,7.3836,6.4880,-2.4680,-2.4879,4.4291,8.9539,10.6741,7.8214,11.7692,8.8295,11.2088,18.8267,20.2673,32.0171,38.1250,31.7690,31.9136,28.2403,10.5819,12.1788,28.6839,13.2021,1.5151,9.3621,9.7662,11.3969,5.1641,3.2171,-7.8177,-3.8735,7.9397,6.3674,7.4023,19.9543,17.7985,26.5572,30.6644,26.4189,27.7966,32.3692,16.7896,25.2191,30.6729,28.4117,15.9698,14.3823,11.9370,23.0028,14.7733,2.5062,0.7965,-1.6297,0.7309,-9.4389,-7.5353,-10.8851,1.3427,-4.6140,0.8312,6.7194,26.4952,16.3935,29.4515,29.6920,34.5099,38.3559,38.1982,33.3726,27.3542,30.6540,40.8412,37.2419,27.8403,23.2192,29.7494,23.0983,19.3199,8.5447,3.5380,0.1580,1.0839,-6.0837,-11.2568,-4.8476,-8.5832,5.1868,-1.2148,8.2292,15.1910,21.8680,36.0653,38.4608,36.2958,46.8188,46.6164,45.1821,42.4754,35.5732,39.0933,29.6467,19.3477,20.6792,21.4877,21.1705,10.1035,-3.3086,-2.9341,2.5973,-16.5369,-8.4303,-8.3531,-8.6521,-0.5247,3.6154,7.0015,3.6873,6.3549,9.6264,12.3701,12.6262,19.7388,23.8276,18.6076,20.7582,24.8793,22.6608,32.5822,26.2851,37.3661,34.1349,26.5317,21.7963,5.2298,-2.2365,0.2318,-10.5048,-8.4357,-0.4293,-9.7770,-12.9833,-6.4767,3.8388,11.7294,11.6741,10.6590,12.5909,19.1227,23.4653,19.6191,17.7769,11.8020,14.7788,11.4160,25.4591,12.0654,12.9160,16.7232,12.8573,-2.6803,-17.3572,-8.8553,-10.1025,-12.3728,-18.8844,-13.9802,0.1772,-0.6213,-13.7162,-12.7370,-11.9528,-3.9163,6.9554,10.6087,24.1834,30.3620,28.4492,28.8902,33.5021,29.9106,51.6345,44.8213,34.3928,39.1589,17.1628,20.6355,-5.9260,0.4741,-1.9039,-2.0352,-10.0428,-12.0474,-6.4117,-8.5351,-11.8219,-9.6022,-1.5519,7.9148,16.5630,23.0401,7.9579,9.3442,22.7600,24.2843,32.3700,29.7405,28.5588,25.5243,27.5581,24.4166,4.2851,0.5660,14.0215,-1.8143,-0.6286,12.4508,4.0273,1.1690,-12.2480,1.4824,2.2222,-1.2058,0.4070,4.9041,5.3226,19.8302,32.6769,44.3004,44.8762,37.0972,43.7489,45.3840,35.2402,28.6294,28.8027,31.6062,24.9836,20.5998,14.6072,4.7506,4.3909,7.2498,-20.8231,-18.3469,-18.7979,-18.2979,-15.4967,-13.2569,-10.9788,-10.4027,-1.9434,2.4634,0.0534,12.7906,10.6321,28.2410,31.1083,44.1881,33.8605,33.9849,31.3825,42.0925,36.0451,37.1625,14.7496,13.8208,2.7992,7.6766,-2.0015,-6.1373,-10.9996,-4.6144,8.5690,-8.8920,-7.6537,-6.1742,-16.7358,-15.3625,-3.0394,1.6133,4.9472,2.5297,13.4998,18.6324,5.3893,17.6823,17.4617,20.0822,21.6907,12.0537,11.3059,1.6014,0.1529,12.5783,0.5755,-13.1656,-4.0918,-29.1951,-19.4445,-28.7440,-24.2566,-17.4420,-1.8697,-11.2520,-19.8157,-7.1673,-3.4143,2.4118,7.5133,7.4321,8.9878,18.8360,27.5275,30.4193,38.7422,35.0877,27.2463,27.0435,20.3961,27.3513,17.3009,10.1390,16.3870,12.0853,-3.2104,3.7038,-11.1824,-15.2218,-12.9834,-14.9762,-5.3577,-6.2447,4.3229,14.0654,25.3463,16.3707,33.0183,27.0672,29.9598,44.2049,42.3196,46.9321,36.4842,33.6049,21.2829,23.6365,20.8433,23.9424,11.9684,9.0253,15.8191,2.9683,-1.4677,1.7474,-8.3796,-8.1416,-2.0574,10.5158,6.6817,14.0139,4.3172,15.3379,13.3667,16.5828,23.1136,35.0269,20.3737,15.2492,24.5476,31.2702,29.4877,28.1011,25.5841,28.1680,26.8375,21.7945,2.2271,-12.7865,-17.0006,-17.5287,-15.3048,-16.5384,-10.8820,0.5775,-4.0092,-14.2379,-11.4850,-20.4805,-0.6592,6.8900,21.1440,26.3910,20.4502,27.3724,30.0374,39.8403,32.5694,35.6298,41.7479,32.2175,22.1670,15.6758,14.9003,12.9955,5.0657,7.7590,2.0915,6.0728,-2.5669,4.4231,3.2841,10.4537,7.2863,3.8037,-11.3584,-10.8509,-3.5598,13.3407,21.9987,19.9744,32.1634,30.4823,29.9770,43.9159,30.8183,32.3724,24.8251,25.1867,6.4094,8.5858,10.3029,-4.9516,-16.6013,-11.1410,-21.8995,-21.7298,-30.2019,-25.4874,-16.1460,-10.5158,-3.5296,2.4819,3.5529,9.4586,17.5247,16.0236,19.4966,26.4350,21.7491,24.2927,27.3263,30.4448,29.6040,26.8807,18.3967,29.6438,10.9126,15.9769,17.1697,11.9796,2.9576,-2.9001,-2.7090,1.1852,0.9280,-4.6283,1.5990,4.0467,3.6614,27.2919,21.1450,19.0100,36.3867,20.3207,29.0774,34.0100,35.4853,33.5081,34.6011,35.9813,23.2605,28.6354,16.4665,24.2181,17.9828,18.9120,11.3568,9.8462,7.5468,0.4070,2.8554,-10.9999,-20.9448,-8.0749,-0.1997,5.7779,4.0863,12.5818,15.9316,19.1646,11.8386,23.2527,18.4782,25.6454,28.5868,27.7179,29.0394,22.0141,28.3742,18.8387,23.7167,20.7260,17.0286,1.7380,2.5058,-5.1533,-11.6174,-10.0135,-21.7483,-21.7536,-23.9358,-1.3538,-11.0820,-6.5283,5.8063,2.3607,0.9894,10.2001,27.7851,22.6508,24.8427,25.6680,21.1582,22.7564,22.5669,8.4808,10.5302,4.2997,12.6323,3.0227,-11.8249,-9.5095,-7.5741,-12.5661,-5.8029,7.0438,-5.2207,-14.2358,-12.4089,0.2059,-0.7719,-1.8295,8.9515,25.5291,30.3967,19.9755,19.5884,26.1398,23.5637,26.6214,30.4153,21.5572,13.3486,20.2187,24.5426,17.9584,25.6007,11.8978,14.0294,2.8590,-5.0720,-2.8953,-26.6930,-1.1624,-3.9046,-0.0991,5.1363,-2.1668,11.4990,17.5204,9.0161,10.6471,32.5793,29.7839,28.1586,40.5623,32.8171,34.8395,34.2977,35.2980,38.5438,30.2251,30.9715,16.1517,10.0842,16.2578,4.5640,1.6585,-1.4439,-2.0492,3.3459,-0.8418,14.2820,7.5781,14.7338,7.0446,10.3483,7.6016,14.4980,14.0320,16.9202,15.5227,33.6004,33.6513,27.7168,27.3465,11.9292,18.1256,12.1124,21.4658,10.7081,-9.6411,-17.5147,-29.1597,-30.3018,-29.8586,-30.5501,-9.9995,-8.6232,-10.2888,-6.0790,6.4142,-2.9698,1.8076,16.0514,16.3414,20.9164,8.9449,14.6669,24.0321,20.7438,21.6090,31.5910,24.9416,15.4706,8.7472,5.0953,8.7480,6.0578,-0.2943,0.9412,3.6806,-4.1282,-16.6313,-9.7049,-27.0909,-26.8180,-12.2412,-13.1240,-2.8109,-1.1059,5.9824,7.7490,-8.1476,7.3898,19.5650,17.5820,23.0948,15.3635,5.2867,14.7507,8.2567,-0.9605,9.2022,4.1840,-9.7454,-16.0311,-2.4838,-5.4462,-15.0448,-19.5189,-18.2696,-15.1320,-4.1092,-4.8456,-13.9297,-19.9519,2.3409,-10.2580,-9.4807,7.7999,15.7617,17.0706,10.5791,21.4418,21.9009,10.0330,0.8526,3.5753,4.1970,-2.5092,-20.0084,-26.1256,-19.3792,-15.0209,-10.8981,-30.5931,-31.1976,-19.0190,-11.8370,-13.8086,-18.9293,-7.3194,-4.1481,12.1547,15.0179,6.7157,25.4466,12.1755,7.1811,13.3925,9.9875,23.2797,19.2780,25.2460,13.4536,6.2405,1.3940,11.9890,3.3354,3.3201,-2.8127,-5.0459,-9.5335,-7.4225,-5.0209,-4.3891,-0.3269,-11.7399,3.1748,-4.2434,6.5418,12.5944,26.0257,22.9473,22.4538,42.7864,27.2848,40.0927,37.9453,32.3757,32.9996,29.9070,28.2310,20.9874,30.5752,26.0802,8.0817,9.1575,-6.9376,-1.0772,-4.7743,-1.2047,-1.9453,-1.5480,-8.0913,3.9295,8.0173,21.9773,8.9661,9.4904,21.2051,22.9083,16.9947,27.5487,22.7500,31.4030,22.3042,33.6636,23.7808,8.8223,8.6767,8.2081,2.9815,3.8490,3.7428,-5.5157,-0.8247,-0.4000,-2.4533,-15.8564,-9.8746,-13.2335,-10.7597,-3.9065,-1.7378,-7.9565,1.8416,6.9389,15.3833,22.3936,23.2016,19.4859,15.5442,21.8522,20.4162,11.5493,-1.4922,2.9343,-7.4875,-6.3842,2.9101,-7.6513,-10.4109,-10.2141,0.5419,-7.1640,-13.6697,-5.9432,-7.6770,8.6238,-1.7410,11.0183,16.3568,14.6565,23.0432,22.8929,23.1088,23.3455,22.4631,31.6102,44.0019,40.2711,37.7791,26.6877,17.0355,3.6890,10.7687,8.5514,-1.2353,-8.4051,-11.5027,-7.1065,-5.7412,-8.9496,-1.7183,0.5178,6.6124,25.4944,12.4961,15.3082,14.2146,15.6243,12.6622,22.0231,25.8935,20.5172,23.7652,28.6362,28.3622,26.7783,28.1413,34.7281,22.8656,-1.7238,7.7804,3.5760,1.0516,-23.2309,-17.8927,-23.0576,-12.7207,-10.3933,-9.7713,-18.7902,-14.5374,-9.8995,-7.9331,-0.0011,6.2423,10.0225,9.5792,20.2014,33.1967,24.5419,33.6193,24.2603,14.5207,10.2949,13.0961,6.2948,1.7689,-6.8642,-10.8737,-9.6480,-19.9499,-12.5978,0.6018,-4.2862,-7.6620,-4.4782,-18.5566,-21.4964,-7.3317,-9.0160,-2.2922,0.8091,4.3904,-3.6715,8.0389,11.8582,24.9187,28.9959,28.9085,34.6981,32.8783,40.8559,23.9538,22.5721,16.4773,11.5276,9.9619,3.9875,13.3217,-1.4375,4.6345,3.0184,-13.8474,-9.6190,-9.2901,-2.1920,7.9506,1.4504,2.8462,10.2550,24.0883,27.7760,17.6314,23.2973,31.7341,18.2416,12.1782,14.6728,-1.3153,0.7266,9.6910,-13.6424,2.8462,-6.8247,-13.0326,-22.8680,-27.2620,-30.8365,-18.7770,-9.7613,-13.6783,-17.8805,-13.7631,-1.4522,1.8474,-7.6913,-1.5562,10.3272,4.2374,-4.3834,9.5528,14.5684,11.6343,20.4873,29.3599,11.5104,7.7813,3.3697,-5.0816,-7.3551,1.8488,-11.1897,-16.5098,-9.1663,-7.2270,-16.1427,-6.3715,-10.2781,-2.8736,-2.0050,-9.2456,-11.5700,-5.5012,-3.8678,13.7013,12.9717,5.9745,14.3770,4.5375,8.9868,16.7573,12.6134,12.6092,-2.5771,14.5702,-0.1052,-7.2817,-5.3395,-22.1648,-23.1849,-8.3722,-6.1479,-13.5803,-14.9062,-25.5305,-26.9946,-11.0126,0.5577,-4.0021,2.6086,17.0443,16.0291,12.6854,21.8121,12.6658,19.7694,13.3682,13.9132,10.5706,15.5228,6.0327,-7.1405,-16.8909,-22.1567,-14.4691,-14.5974,-18.8530,-14.9264,-27.2990,-20.3064,-6.2985,-33.0208,-27.4376,-24.8885,-5.3000,-8.7750,6.9079,2.6740,12.8131,20.7056,17.7069,19.5154,27.2605,19.1382,25.9831,40.3022,19.5452,12.1461,6.9514,2.9187,-0.6328,13.4787,-3.9213,-14.8422,-20.3138,-28.0467,-27.7352,-30.5765,-26.3711,-28.1796,-27.8591,-22.4873,-9.4156,-8.0196,-3.7187,3.3934,0.9382,11.1200,8.6017,32.8813,43.6411,36.1889,32.7696,23.2552,18.9802,17.7296,25.5801,-1.5769,5.5563,9.6391,-0.4857,-6.8706,-4.1050,-15.5910,4.1803,-7.7234,-5.6481,-2.7203,-14.2558,-2.1147,-12.0455,-2.8691,12.5953,8.9175,22.1567,15.9243,21.7426,25.4750,39.6375,32.2716,30.6979,24.0524,19.7910,22.1127,8.5510,15.2592,14.3898,5.4737,-11.6277,-15.0855,-7.1307,-19.7759,-19.8492,-6.0881,-4.0977,7.0486,4.1764,12.9399,21.2126,25.3270,18.3735,28.5469,40.0478,51.6378,41.5227,22.2311,9.0887,15.1774,13.4119,6.1899,3.8443,16.1935,17.9268,5.7709,-2.1046,-18.2233,-12.5467,-7.0486,3.2263,-2.8540,-6.8534,6.5448,14.6303,4.1102,4.8454,11.7751,11.3173,17.7700,12.8399,13.4925,17.9001,24.4050,18.4676,20.9644,12.3619,5.6833,14.7403,10.6045,14.7942,-0.5130,0.2708,-16.6752,-22.4311,-18.3076,-19.8622,-10.1761,-23.5793,-17.6728,-18.1092,-10.0706,-15.6104,-15.5288,-15.0701,3.7642,4.6748,9.0026,12.6512,3.7605,-0.8077,3.5537,8.9073,5.7988,3.7704,-1.1074,6.0175,-1.0875,-11.4022,-22.4786,-26.7125,-30.3638,-31.3503,-32.8609,-15.0460,-15.7781,-0.6783,-13.9603,-2.7450,-6.7833,-0.0347,2.7962,0.3205,14.7003,23.5458,18.5268,33.3033,18.6842,24.8818,31.8763,22.0351,16.8151,7.1378,19.9833,13.2448,13.4930,1.1848,5.5261,11.9182,-9.4458,3.4053,3.0768,4.0343,-6.0410,-10.7336,-9.0230,-12.2922,-0.7922,8.0849,8.2644,12.9234,34.4490,39.2225,30.8432,30.9172,30.5172,23.6308,25.1569,28.7934,24.4336,26.5860,22.6014,20.7654,15.3871,16.1520,15.7165,-0.8292,-10.4619,-3.6521,5.5412,2.2376,3.9831,7.2633,11.8973,9.9007,14.6498,18.7577,29.6447,42.2302,34.4973,36.4331,34.7509,34.0776,33.8073,21.1411,12.2378,12.6214,13.5741,17.6383,8.1260,13.0194,3.4723,4.6802,-0.5310,7.2113,8.1408,3.6132,-2.6419,2.0583,7.7582,1.8658,-0.4810,-4.0922,13.7725,20.8645,23.0113,24.9608,28.4302,33.8380,41.0417,38.9546,48.8552,46.6256,32.2920,40.1902,35.1881,26.7904,13.3210,17.0602,20.2151,5.9415,8.7480,0.2360,-6.0639,0.7405,5.8899,6.7685,9.4623,14.3448,16.2837,14.0299,14.5562,17.1594,25.7059,24.8475,32.9330,25.0721,29.5229,33.8212,28.8870,18.1201,22.7734,32.8565,16.7132,21.6410,14.5188,10.2193,0.6355,1.2846,-1.0312,-1.3476,-12.4238,-16.1835,-5.6737,-12.8347,-8.3268,5.5324,20.3207,13.0847,20.9690,14.3399,29.8479,30.0671,22.4265,18.3386,23.9890,22.5743,21.9874,17.7948,8.2899,5.9469,2.8428,-6.5018,-12.1670,2.6822,-4.7561,3.4335,4.8765,-2.1332,4.6539,0.7166,17.7916,11.7813,8.0385,14.6681,11.7707,11.9345,2.6453,4.4979,30.9931,18.6193,26.2019,18.6716,23.5654,13.7548,19.3691,16.2538,12.7031,1.2318,3.3690,2.4618,-2.9082,-4.9732,-7.1832,-5.9654,3.0773,8.1761,0.0276,-6.9533,1.5533,2.9522,4.5312,20.7182,20.7923,23.9491,41.6816,29.6821,38.5377,51.1940,44.1255,43.9208,33.3314,46.3784,34.3516,33.9801,27.9916,19.8602,5.3372,7.1345,-3.8662,-1.1301,8.6650,1.9432,11.8099,6.2034,6.9741,7.2362,26.1423,25.7986,21.3428,23.9449,18.2509,35.0091,50.0648,44.2296,50.5366,53.3232,49.4552,49.8608,49.0663,30.1658,47.3169,34.4609,26.5847,23.8343,17.4277,26.8277,21.1245,16.0169,14.7895,4.8060,6.0341,16.9442,25.4963,18.3687,26.0152,34.0206,42.8653,44.6027,51.1685,56.4341,58.3112,53.5218,44.4748,53.5541,49.4966,53.0749,49.0483,33.5605,20.6155,29.1167,22.5142,11.2419,18.6887,3.7807,3.3900,6.6369,6.7898,12.2446,6.2633,16.4362,11.9825,24.2954,22.1000,37.2512,21.7467,30.8715,48.3171,44.7647,46.9558,40.0758,31.2295,47.9567,35.9932,36.0864,24.6814,35.6233,31.5924,26.2922,19.7680,20.0586,34.7117,18.6729,18.2783,13.2370,22.2526,18.5471,27.1050,33.0813,40.2532,50.1305,49.6272,44.6432,46.7343,53.9148,52.8153,46.9906,53.4532,56.5554,62.0995,56.5587,48.7722,48.1403,49.8950,37.9251,25.0402,19.1077,-1.6267,-0.1496,-3.2078,2.5796,1.8942,3.2896,19.4117,16.5392,29.2307,40.7442,28.4669,22.5531,33.9651,43.6568,46.5769,54.5149,53.0831,47.5731,47.7036,53.7149,52.1153,48.0261,31.1348,36.2795,30.0361,33.1127,25.2524,24.1598,25.5471,18.7727,14.5797,12.2333,0.5122,4.2963,-3.3635,2.9024,5.4924,18.3292,24.2629,35.3883,48.5666,51.3111,56.4648,44.6945,43.9337,41.1467,46.7683,44.8891,48.5667,33.3650,31.2617,40.8657,14.7666,17.0477,28.7648,8.5192,6.0109,-5.9059,-5.3280,-3.8323,7.9230,-0.0041,3.2675,8.0925,19.9669,29.4328,21.7826,28.3035,38.2373,31.9675,34.4694,32.3901,36.3007,31.2328,33.5315,15.9728,27.3882,37.6920,41.3005,26.1581,17.2647,11.8072,11.3255,6.7651,-0.1587,3.0205,11.7799,10.0930,19.0589,23.7526,10.7334,30.4576,18.6204,20.5933,32.0881,35.3311,39.9065,47.4845,44.7326,49.7497,41.3244,41.2300,38.8243,38.4237,25.7230,20.9538,15.1924,13.6550,10.2717,3.4795,7.3827,5.0058,10.7239,16.0919,15.4222,12.2768,-1.2368,4.0270,14.7848,15.0736,19.2082,34.5244,47.3091,52.3664,42.7388,52.5107,41.9610,53.6034,37.5499,35.8247,30.1244,29.3904,19.1874,19.4000,14.7760,3.7415,6.7239,7.0539,11.0398,-2.6788,-13.7908,-14.2267,4.6628,2.0786,9.7766,15.5728,21.3254,41.5514,40.3519,42.5786,35.4330,29.5050,41.5283,37.8916,40.9275,45.2189,34.0879,23.0489,27.2685,29.0481,18.2196,16.1058,10.4899,11.0318,9.8438,6.9180,9.9796,-8.6310,7.4758,9.7907,27.3748,36.0787,19.4858,21.4381,21.2606,24.3068,27.9580,42.1245,40.3004,34.8879,30.9953,40.6938,39.4450,36.9851,39.3101,41.8525,25.2606,24.8518,21.6804,21.4444,23.7212,30.6251,18.4814,0.6739,-11.5573,-11.3765,-2.9044,9.1567,14.8066,18.7719,12.5853,11.6249,20.9270,22.2160,31.0522,34.9154,39.6296,32.2198,35.7754,36.4510,49.7457,36.8705,32.2674,30.9561,26.7367,26.5833,19.5198,14.4741,12.9685,15.5363,26.4648,19.1876,4.7949,14.0258,25.2695,20.0065,15.0886,25.7571,40.3709,24.8669,27.4924,30.4807,33.3291,37.6528,39.4478,44.8691,38.0205,37.9028,55.3821,47.2839,48.1599,36.4731,35.9572,30.7337,30.5652,24.5863,25.2594,19.3556,10.4387,-1.5206,5.3805,10.5612,11.6035,13.7846,26.3542,37.0289,44.1515,43.8733,29.9588,20.7663,22.3962,33.4887,38.7726,32.1922,38.2758,40.5337,21.6271,18.9572,32.9730,25.4366,18.0844,11.2833,9.7600,6.3253,9.9512,9.3217,8.7339,12.4622,10.0824,9.2232,12.9128,23.4684,25.8576,22.2408,16.9735,15.3642,31.6967,23.7800,23.7758,26.2642,17.2645,28.0863,35.9293,32.4379,28.1336,20.0616,23.4962,16.4589,-0.5381,4.4865,-12.2223,-3.8556,4.0596,5.3675,-5.4566,1.8952,16.6838,19.6796,25.6016,37.6787,26.9783,37.9859,33.9993,37.4564,44.8984,43.3374,34.2422,35.7787,38.4631,37.7424,45.9408,42.5890,28.9797,32.5710,9.3925,-8.4642,7.4819,1.9826,-4.6401,-7.9404,1.6872,6.6938,-4.8991,15.0155,