Fp1,Fp2,C3,C4,P3,P4,O1,O2
-34.3837,-39.1724,-66.0663,-66.2200,-57.3090,-60.4007,-59.6707,-63.5164,-49.0732,-46.3602,-48.4773,-38.6408,-41.5586,-48.4331,-38.0556,-41.6114,-25.7911,-28.2187,-28.5425,-29.0220,-15.4159,-25.1053,-30.1433,-30.7140,-26.1420,-28.8881,-31.6848,-33.0904,-26.1627,-48.8163,-55.9611,-58.7589,-47.5894,-42.7821,-51.8726,-56.9238,-52.7531,-36.6550,-30.1521,-28.9610,-34.4615,-25.6975,-22.9785,-19.8273,-14.5336,-19.4114,-19.2082,-26.9204,-29.9552,-34.4990,-54.9511,-53.2151,-57.1558,-61.1229,-58.1551,-47.4501,-63.1808,-54.0191,-70.6759,-59.6762,-49.8073,-41.4682,-35.7444,-32.9019,-39.3385,-38.2011,-27.7451,-35.7831,-45.8214,-46.3332,-43.5939,-33.3879,-35.9281,-35.9544,-47.3219,-47.3813,-48.0729,-58.2535,-57.8330,-68.6099,-69.1551,-70.2029,-73.7986,-59.7195,-61.5678,-54.1611,-45.7711,-41.7375,-38.0234,-42.6887,-45.2432,-44.9729,-58.1148,-58.7009,-57.8643,-54.5028,-45.3700,-55.4222,-52.9336,-43.5444,-57.2065,-55.6557,-70.6115,-69.8504,-75.6340,-70.2410,-61.6552,-76.4644,-59.3163,-56.0955,-60.1207,-61.7938,-46.5490,-43.8173,-33.9537,-29.5524,-17.1407,-30.3683,-37.7420,-29.6706,-28.3185,-21.8301,-28.9483,-36.9979,-37.2933,-62.5048,-66.3185,-70.9523,-69.8151,-75.0963,-60.0191,-63.8679,-70.8108,-61.9602,-43.8101,-30.1427,-13.8381,-5.0373,-25.0378,-41.0756,-50.2698,-34.2584,-40.5806,-39.7806,-41.9332,-39.3926,-33.2939,-43.9074,-53.0909,-65.5941,-73.2659,-65.0564,-57.9919,-43.7060,-53.1365,-48.9805,-59.7335,-64.3045,-59.2852,-49.1369,-24.0639,-38.2731,-26.3720,-33.8255,-19.8677,-22.1833,-27.7345,-29.7458,-36.1471,-32.3125,-42.9547,-53.5018,-55.7478,-44.4353,-34.4311,-45.7039,-49.8012,-46.0494,-37.9786,-44.8097,-47.0668,-33.3358,-32.6968,-23.1213,-31.5908,-41.5732,-37.5236,-10.2316,-6.0603,-20.8689,-23.7265,-14.3861,-35.7795,-38.6728,-30.8715,-40.9137,-42.5518,-46.4166,-44.6519,-40.3933,-52.7170,-55.8905,-77.1300,-65.8021,-69.6228,-70.6334,-63.8647,-53.2840,-40.1956,-50.7523,-38.3774,-36.6773,-30.6979,-17.4608,-17.7230,-14.0762,-28.0717,-36.7282,-36.6666,-36.2373,-41.1863,-53.1896,-47.1550,-44.0765,-28.1356,-36.3618,-61.2497,-63.1199,-71.3276,-63.1018,-51.2435,-42.6801,-54.8508,-56.0161,-63.5228,-47.7075,-49.6083,-44.6827,-44.9690,-40.4172,-52.5262,-48.5062,-23.7853,-47.8808,-48.0627,-24.9709,-20.2827,-53.6987,-53.7691,-47.7211,-39.7733,-59.0847,-54.2300,-43.8612,-44.2622,-48.2080,-45.6657,-50.5637,-38.8275,-33.0597,-26.0290,-27.4148,-17.3225,-11.9433,-18.6740,-20.3591,-25.6065,-30.5017,-38.3870,-33.8988,-36.0293,-21.9185,-28.1404,-42.7187,-56.2183,-58.8778,-41.4946,-44.8193,-44.4256,-56.5490,-35.1221,-34.3359,-43.4155,-35.9152,-26.8987,-25.8944,-27.5652,-26.2150,-27.7096,-25.2077,-21.7314,-53.8026,-42.8308,-40.4505,-43.3025,-52.7245,-64.6211,-48.8736,-39.1707,-60.5712,-45.0117,-49.6594,-46.6134,-48.7239,-36.5249,-16.7343,-13.3169,-0.0780,-0.3758,-3.1346,5.7322,-3.6986,-5.5467,-16.8654,-19.8993,-27.6445,-21.3041,-38.3169,-29.3393,-36.2474,-29.2774,-32.4165,-28.3187,-41.0517,-61.2338,-53.2141,-58.2457,-48.8813,-29.3738,-32.4444,-41.7723,-42.3204,-33.2351,-38.9041,-32.2629,-21.3248,-13.9623,-21.8604,-45.2932,-30.4967,-32.0766,-31.7889,-29.6630,-60.5573,-54.6743,-47.9104,-61.0657,-39.3767,-43.1072,-40.0529,-46.8074,-34.0467,-27.9959,-31.2927,-29.1909,-27.5716,-33.2617,-26.2507,-22.8057,-16.6762,-13.1454,-28.9865,-23.9347,-15.2851,-34.6231,-39.8177,-33.9161,-31.0083,-37.5073,-30.2493,-34.1542,-36.3087,-37.8851,-27.6922,-48.3978,-61.2641,-34.8819,-44.7371,-38.9235,-30.3959,-51.2018,-50.8905,-51.0885,-42.0666,-30.1878,-29.2045,-35.2548,-53.4022,-63.1218,-48.2146,-50.7908,-45.3407,-44.9489,-50.6277,-48.8286,-53.8252,-54.3741,-63.3574,-58.9355,-52.4767,-45.5978,-50.7593,-42.7621,-45.5392,-42.5217,-37.0033,-57.8849,-55.8284,-57.3831,-61.9663,-47.0492,-34.3487,-40.5810,-38.0303,-32.2630,-33.9788,-47.2241,-43.1232,-57.0864,-69.3742,-71.5846,-78.1044,-71.5980,-61.9409,-46.8350,-37.6422,-56.1792,-43.6636,-48.7066,-36.0113,-38.7279,-48.5083,-29.0661,-38.5361,-41.0397,-46.1963,-43.9200,-37.1277,-42.3041,-40.9548,-41.8631,-38.7097,-54.6972,-64.2287,-46.5436,-52.0674,-40.4132,-42.0944,-42.5406,-32.8756,-15.0710,-10.7729,-24.2726,-23.3535,-17.5004,-30.6772,-24.6044,-27.8889,-30.1351,-43.9797,-56.2709,-63.6331,-58.3097,-53.0683,-49.6382,-33.7513,-42.1724,-60.2732,-54.3099,-58.9691,-56.9830,-50.0368,-43.7468,-45.6184,-33.3351,-43.4056,-28.6441,-4.6268,-16.2301,-8.9182,-17.9040,-17.6337,-24.6123,-30.0558,-37.0734,-32.9649,-43.6379,-36.1310,-35.7599,-46.1744,-55.4791,-55.1210,-62.3404,-58.8436,-79.7209,-72.6832,-81.8047,-73.0014,-45.6774,-44.4700,-55.7748,-62.4846,-68.6081,-43.1971,-15.0456,-26.8642,-36.0466,-32.8648,-48.9316,-42.7377,-40.5725,-42.9013,-39.0222,-44.0671,-45.9087,-56.7613,-46.3453,-42.3589,-62.3262,-60.7074,-42.0052,-46.6097,-33.5430,-40.8606,-25.5672,-31.0009,-28.0065,-18.6882,-33.6738,-41.1689,-38.7148,-35.5960,-51.1229,-40.6165,-50.3417,-47.2669,-77.5003,-74.2118,-81.9043,-76.5269,-67.7017,-69.6130,-69.2850,-66.2899,-61.5275,-65.0283,-47.8582,-41.7502,-38.9696,-33.9569,-30.8592,-17.8137,-33.1693,-39.1419,-45.5337,-50.9891,-54.8289,-53.4240,-48.2392,-46.9432,-52.4806,-60.5464,-51.3125,-54.6730,-65.0823,-70.6562,-63.1220,-66.4416,-77.4053,-65.5387,-59.6557,-63.6328,-53.5125,-58.0285,-33.3644,-29.9128,-40.4525,-40.5974,-62.0260,-55.0541,-48.1400,-52.2191,-38.7960,-32.8380,-60.0003,-63.2900,-56.3306,-49.9914,-71.9763,-63.7841,-55.0755,-81.6868,-80.9241,-71.5263,-66.4750,-52.3251,-53.6227,-63.8314,-44.7816,-45.4309,-30.8416,-42.1924,-42.1585,-32.8324,-31.7606,-39.3280,-58.3103,-48.9724,-62.1640,-59.6040,-73.2201,-64.5256,-74.9354,-78.8641,-63.3314,-64.5236,-67.4566,-51.3074,-60.8421,-55.5902,-50.6372,-52.8212,-42.4769,-45.9782,-41.7268,-28.3335,-46.0576,-54.5825,-23.1763,-16.3978,-44.3164,-62.6649,-56.0386,-57.8754,-61.1047,-69.0084,-58.3692,-59.8597,-73.5193,-55.4677,-42.8845,-55.1765,-59.3183,-55.1798,-48.5717,-60.5111,-44.1369,-39.4600,-20.5731,-29.8890,-19.7026,-38.8323,-30.6645,-34.9060,-47.1156,-43.0230,-40.4072,-58.5604,-74.9927,-68.8576,-77.5309,-76.6960,-77.8551,-91.1873,-89.3665,-71.4071,-75.9984,-85.2116,-56.0512,-51.9713,-55.3930,-53.0080,-31.3794,-25.7670,-9.0296,-21.4074,-25.1497,-30.2315,-25.9248,-29.2138,-30.9889,-49.4626,-55.6144,-58.5190,-51.1981,-49.2869,-67.1420,-70.3301,-66.5090,-69.6001,-64.1281,-86.4807,-77.1153,-74.3311,-81.5389,-67.5449,-59.9964,-48.2620,-35.2203,-43.8425,-50.2263,-43.0309,-37.1221,-54.6896,-57.7607,-50.0076,-56.8900,-54.8425,-61.9571,-62.2789,-77.1800,-73.3164,-75.7535,-83.9476,-83.3286,-63.8027,-66.3360,-67.7524,-55.7901,-45.3097,-66.9539,-60.1949,-48.4132,-26.9235,-31.7630,-31.7431,-48.2386,-50.7451,-40.8383,-44.2572,-44.2582,-52.1660,-52.2262,-54.6717,-52.4294,-56.2448,-77.2437,-80.5215,-52.6368,-46.6220,-60.9125,-62.9522,-41.4947,-25.8037,-14.4427,-21.5950,-28.9245,-32.1604,-24.9276,-26.2247,-28.1815,-4.8906,-6.0731,-16.8691,-36.0749,-28.2062,-31.4547,-35.0753,-31.7222,-37.6273,-39.1731,-41.4042,-46.4569,-60.8909,-46.2603,-45.7415,-43.2267,-14.2016,-5.8411,-6.3930,-12.8122,-6.8897,-17.6687,-21.3553,-32.9778,-26.2987,-32.4921,-45.9683,-40.5002,-40.2696,-29.1342,-38.6641,-50.0765,-52.7622,-57.0797,-61.6793,-68.2226,-61.1816,-62.8310,-61.9595,-44.2562,-41.1321,-52.1787,-35.3075,-20.4547,-16.1345,-16.8313,-26.9915,-37.5594,-41.1494,-32.1086,-31.8299,-28.3216,-34.9422,-51.5922,-65.7616,-62.8877,-60.5633,-65.1011,-68.0674,-62.0547,-65.7364,-63.9586,-54.0139,-54.4213,-46.5128,-43.9006,-51.7727,-44.0412,-30.0213,-50.0592,-60.8554,-58.4663,-43.3476,-42.2715,-43.9493,-40.3443,-69.8385,-51.1231,-44.0522,-65.9545,-64.7755,-67.4154,-66.2798,-56.3430,-36.4095,-28.6237,-38.2735,-20.2284,-26.7478,-13.2718,-22.3674,-19.1525,-11.5016,9.6867,-8.4139,-24.3906,-17.8039,-31.0824,-36.3271,-30.8149,-40.9755,-45.1199,-51.7775,-54.2478,-60.0485,-79.5411,-65.2420,-76.7818,-79.9478,-66.8899,-62.1181,-63.0435,-50.6762,-62.1827,-53.9796,-50.8019,-43.8944,-40.4410,-48.3725,-37.9322,-46.1367,-65.8188,-69.5536,-57.0676,-59.0478,-60.7794,-62.6960,-63.0222,-62.4375,-80.9702,-85.0510,-82.8362,-69.4711,-60.5768,-73.6980,-89.0686,-80.6201,-67.6398,-58.7694,-51.2931,-43.3341,-40.9179,-30.3820,-42.5359,-45.1505,-38.0267,-52.3660,-41.0534,-43.5707,-46.1416,-37.2553,-53.1296,-39.5182,-59.0228,-70.5981,-62.7531,-68.8581,-63.1338,-48.9928,-42.5317,-44.2579,-26.8913,-18.4297,-13.4348,-17.6313,-15.2973,-39.4132,-32.0229,-34.7045,-29.1003,-34.2466,-31.3105,-19.0991,-35.9383,-37.7080,-45.2247,-45.9340,-46.7074,-42.5897,-35.2075,-31.3424,-40.4480,-40.2959,-50.4778,-39.3055,-25.8113,-21.9239,-23.0568,-16.3864,-17.0804,-13.2119,-22.8541,-32.1144,-35.8945,-63.3681,-49.8579,-80.5205,-69.7860,-51.9767,-52.4328,-65.7892,-61.9248,-45.9775,-54.2357,-34.9237,-47.6066,-43.5239,-33.0971,-43.0626,-50.7301,-42.4840,-39.8414,-46.3947,-36.6907,-35.2501,-21.8834,-27.2820,-31.6232,-32.2818,-32.2393,-34.2159,-50.9007,-54.7396,-42.9372,-56.8561,-66.7893,-54.2930,-54.4001,-67.2685,-52.3754,-43.7467,-42.2535,-39.0333,-49.2558,-33.6677,-31.8497,-27.0008,-10.4388,0.0691,4.6877,-0.6345,-14.0671,-14.6350,-15.2974,-24.3199,-28.9235,-29.4536,-41.4132,-51.6776,-51.9544,-45.9147,-50.4240,-48.2796,-45.8230,-51.6043,-42.3377,-43.8015,-51.9871,-32.2538,-44.2732,-53.0315,-47.1003,-42.7736,-32.0707,-32.0222,-31.2078,-24.6550,-27.7461,-31.5816,-35.1507,-41.8143,-66.7008,-61.7787,-74.2100,-58.7471,-54.2978,-44.2376,-41.1831,-48.0452,-51.4619,-42.5368,-45.2051,-36.8027,-25.5320,-31.5445,-19.1289,-18.2083,-27.9370,-14.4478,-16.4540,-25.1661,-36.2020,-41.5387,-41.4468,-37.7454,-50.3703,-45.8340,-58.5505,-52.7633,-46.3015,-30.6975,-54.3032,-35.4843,-40.2863,-37.2286,-35.2545,-30.0784,-28.7796,-15.3452,-24.4878,-14.2679,-25.4345,-23.7255,-29.7826,-18.7090,-12.9392,-27.9452,-36.1782,-47.8253,-47.4257,-59.6167,-55.4309,-44.1874,-31.7489,-21.6076,-44.8148,-33.4045,-40.5643,-43.0563,-37.1666,-37.3331,-35.6832,-38.6439,-44.7429,-41.7639,-22.4299,-25.3804,-26.5656,-20.5616,-14.5349,-20.3746,-27.1809,-14.5485,-13.2153,-23.7763,-23.8858,-24.5643,-28.6492,-35.6633,-38.6070,-42.3556,-53.7598,-42.1139,-53.3191,-44.6431,-23.0614,-19.8062,-14.2427,-27.1426,-34.4283,-27.0752,-23.1978,-22.3549,-17.4910,-30.7641,-32.2574,-45.2340,-40.3622,-47.5826,-57.6567,-57.3202,-58.6225,-58.2296,-44.9459,-58.6894,-64.0650,-76.7141,-65.4285,-54.8149,-49.7142,-29.6582,-33.6443,-21.5394,-27.8791,-28.6649,-29.9309,-29.3024,-22.8483,-56.7901,-60.5195,-50.5266,-45.7831,-41.7674,-45.7554,-53.3870,-44.8351,-45.5229,-52.5208,-48.5811,-54.1742,-59.4876,-49.2704,-50.8718,-49.1045,-40.4706,-68.2365,-62.5550,-56.9929,-48.2447,-46.4780,-55.0302,-51.3496,-46.0499,-21.1737,-28.4471,-52.2875,-61.5011,-74.6764,-84.2331,-74.7363,-80.6426,-76.3400,-85.6858,-77.2227,-65.2938,-58.3757,-55.2508,-62.4219,-44.1471,-49.2292,-36.3875,-38.2084,-45.9238,-35.6614,-26.8389,-23.6340,-27.5799,-16.8968,-23.0790,-35.8034,-31.5819,-25.6681,-32.7172,-63.2208,-66.3789,-53.0501,-73.0849,-77.4343,-69.0049,-59.2783,-60.0732,-61.9066,-58.8279,-54.9115,-48.1644,-21.3167,-31.0731,-30.0486,-42.3388,-45.7777,-56.2910,-75.7824,-72.3286,-77.8595,-82.2399,-71.7606,-51.5881,-57.9547,-49.7792,-55.3994,-55.3745,-66.3560,-55.1406,-50.9640,-57.0967,-46.2846,-43.3306,-49.9790,-52.6942,-49.0835,-35.2005,-29.9954,-35.3600,-27.8565,-21.7335,-20.3583,-15.0020,-22.1978,-42.1605,-30.3148,-48.1679,-43.7632,-54.6787,-64.7660,203.4771,197.6191,178.1223,186.5572,181.6289,155.7007,152.7863,138.4594,133.7206,138.7411,130.2343,135.0607,113.7273,114.1201,100.3435,93.9390,75.1351,66.7437,56.3681,43.3842,46.8894,41.4316,35.5082,36.6522,28.8019,9.3149,7.6249,-1.8702,0.2713,-1.7176,14.4735,6.3968,1.1724,7.0670,-19.4990,-19.5723,1.6172,-2.2095,-5.0128,-18.7752,-11.2835,0.6977,-13.0310,-27.2788,-40.4788,-49.5309,-66.3966,-52.8117,-51.4078,-71.6712,-68.7544,-71.6183,-67.9984,-59.0505,-68.5440,-45.2526,-39.2616,-46.9751,-62.4848,-49.0051,-32.6309,-58.7085,-43.9835,-45.7332,-32.7336,-41.9534,-36.5716,-35.1246,-30.6866,-49.0858,-53.0002,-67.9505,-53.1909,-67.0091,-67.1976,-63.0114,-70.2685,-53.0084,-41.9933,-44.6022,-55.1119,-40.9797,-31.7788,-47.3780,-38.1646,-19.0498,-19.0433,-15.6682,-5.6284,-16.7109,-17.7335,-8.7554,-35.8988,-47.5402,-42.9846,-45.9106,-55.9919,-58.1667,-33.7740,-46.1384,-53.5026,-40.3993,-45.0650,-43.1171,-35.0508,-43.1954,-26.5326,-10.9557,-20.5811,-29.1782,-32.5041,-33.3694,-34.4182,-36.4175,-32.2867,-52.6524,-39.6263,-49.0544,-48.5841,-58.7604,-42.1501,-41.2618,-46.9836,-64.7018,-48.5052,-49.6784,-61.5838,-46.6356,-37.1916,-31.0885,-29.7784,-25.4237,-15.1711,-20.9748,-53.1499,-39.2913,-39.1117,-51.6739,-39.5617,-33.7730,-53.1938,-49.1312,-60.5442,-59.7899,-46.0167,-59.6154,-56.0141,-68.3708,-39.9971,-44.0492,-47.8562,-41.4381,-50.3235,-29.4814,-35.1415,-32.8345,-32.2253,-29.3610,-17.8261,-18.6297,-17.1027,-22.7799,-22.6583,-29.5335,-16.4522,-44.1319,-28.3357,-29.1746,-45.4100,-25.7525,-33.6640,-37.0767,-45.2377,-47.4313,-44.7435,-35.8596,-25.0909,-31.7626,-36.9530,-21.5013,-17.3085,-18.8976,-20.9689,-32.8433,-43.0225,-48.1994,-56.2418,-46.5519,-52.0602,-62.3812,-84.7440,-73.3929,-55.3392,-65.7563,-60.2893,-68.3278,-46.1486,-51.0849,-42.5762,-22.4272,-25.3627,-38.3791,-39.7877,-34.3901,-24.9887,-26.6400,-25.3152,-11.1555,-18.9810,-5.0815,-21.2169,-16.1160,-30.7434,-35.7656,-54.8462,-61.8276,-55.3592,-54.9400,-67.0167,-81.8750,-85.3555,-85.5415,-83.1060,-63.1080,-49.5478,-55.8080,-68.4122,-49.8646,-40.6663,-22.7922,-45.1128,-36.9291,-20.0778,-29.0768,-32.3924,-39.6645,-42.4903,-45.5572,-61.1892,-56.8103,-75.4785,-67.9469,-70.6118,-78.3522,-75.7459,-80.3413,-82.2175,-75.2527,-75.2803,-62.1899,-66.2080,-51.1168,-59.9493,-53.8902,-48.8090,-32.7174,-39.0235,-45.4112,-45.6086,-66.4207,-53.2554,-39.8827,-56.3848,-62.8815,-63.8756,-68.5472,-94.8227,-95.5081,-81.1532,-83.3741,-68.4121,-79.8400,-92.2269,-87.4009,-91.5188,-67.2083,-58.2965,-53.1303,-37.4872,-34.7834,-47.5483,-62.7032,-43.9607,-43.5651,-47.2353,-47.8766,-64.9846,-49.4045,-72.3028,-68.1405,-87.4017,-82.2236,-62.9080,-71.8721,-63.4708,-65.3006,-64.9136,-53.2106,-64.2846,-75.2119,-65.4120,-51.7082,-52.4032,-67.1959,-63.2359,-62.3619,-63.4975,-72.7402,-70.3045,-71.0229,-61.8234,-64.2013,-76.0035,-82.4653,-83.2073,-93.3119,-98.1254,-96.2753,-92.2110,-91.4483,-76.8075,-69.0797,-81.0362,-66.6797,-62.6167,-55.8486,-57.7448,-68.2814,-66.2787,-54.6084,-49.2380,-72.7565,-56.9905,-51.9408,-64.9872,-66.8665,-80.9874,-84.0681,-99.8485,-105.6307,-82.4227,-92.9417,-89.8662,-93.8570,-89.4131,-74.4164,-69.8635,-54.9453,-47.1557,-43.1624,-38.7061,-28.5193,-45.7469,-38.9535,-29.0886,-31.6518,-54.5115,-49.9973,-39.7400,-48.8869,-56.6639,-64.3923,-68.4669,-65.7737,-69.8417,-68.2399,-65.8938,-67.6222,-52.5403,-33.6856,-63.0496,-49.0121,229.6782,226.5318,212.9373,206.8259,197.2882,177.4854,166.2554,129.7163,142.2204,123.4583,110.9172,79.7709,68.1028,64.7764,54.3733,48.4273,43.6530,17.5854,29.1820,19.3928,11.1543,0.1532,9.4023,-9.1615,9.8762,-1.5777,8.8182,10.6229,17.9670,5.7484,-3.0215,-4.1636,4.6545,-6.2100,-20.9138,-29.1896,-43.8781,-37.0221,-52.7542,-37.7615,-38.8735,-26.0901,-50.5903,-44.0504,-27.3502,-31.1706,-44.5952,-38.4702,-37.6484,-35.6904,-41.8052,-39.3072,-48.7030,-36.6487,-34.2340,-43.0354,-55.1505,-40.3893,-48.4582,-62.6952,-67.0825,-80.4650,-80.6872,-76.1540,-64.4506,-76.3633,-69.3144,-75.6342,-69.6008,-68.7843,-60.8697,-70.1699,-77.8534,-73.6397,-64.1916,-63.3441,-48.6982,-48.9550,-31.6323,-61.1665,-54.5276,-65.9817,-65.5184,-65.5715,-84.7835,-67.2627,-55.6541,-73.8748,-71.8496,-68.3652,-79.0180,-85.8194,-95.7198,-72.4934,-72.7597,-75.5970,-63.9459,-64.3934,-59.5363,-49.2012,-58.5563,-42.4020,-58.1134,-51.5973,-31.6642,-38.9090,-53.1004,-66.9927,-68.9407,-67.8515,-71.2641,-75.5170,-78.2751,-82.8293,-92.5443,-84.1319,-72.2808,-84.8509,-74.8800,-73.1279,-61.7402,-57.6539,-40.1339,-44.7973,-56.6319,-43.3652,-52.5956,-51.9663,-46.7162,-52.8391,-47.4013,-62.7183,-66.8711,-69.6171,-68.9855,-56.7422,-58.3313,-50.6031,-50.3985,-77.0269,-74.6126,-83.0902,-79.8509,-75.7976,-75.5620,-70.3387,-59.5845,-59.8054,-41.9016,-46.1000,-20.0162,-41.3513,-43.5322,-52.4781,-33.5672,-39.4355,-53.3876,-70.5570,-65.7429,-74.9937,-59.1870,-64.8112,-76.0893,-96.0799,-84.0281,-65.3410,-55.9303,-55.5450,-72.4447,-56.6385,-49.2072,-65.6636,-53.3736,-49.1681,-55.1869,-67.2145,-57.9626,-57.7916,-59.0953,-64.8585,-67.1394,-66.6465,-66.6256,-75.7096,-79.9741,-80.4353,-94.3831,-77.2950,-77.0379,-74.4449,-68.0080,-87.6379,-84.4822,-61.7329,-55.8141,-49.9777,-49.2207,-37.2765,-32.7494,-36.7438,-46.1613,-59.9867,-40.0607,-35.9703,-44.5483,-58.8785,-51.4007,-50.8671,-51.0598,-72.0614,-70.8046,-64.2102,-69.8565,-76.9772,-63.3991,-57.8782,-57.9277,-54.5075,-53.3369,-40.1688,-55.2756,-53.8830,-47.9149,-44.3373,-64.5121,-69.2982,-75.4555,-63.2517,-71.4922,-67.9175,-62.3873,-73.0874,-69.8941,-73.6650,-67.4852,-69.4081,-77.5745,-71.7432,-59.7147,-62.6118,-71.8440,-54.9661,-59.2466,-36.9328,-34.5034,-38.7575,-40.0097,-42.4465,-37.8599,-46.7765,-45.5194,-45.7277,-61.8280,-70.0568,-79.6240,-83.5738,-88.4414,-68.1849,-57.4258,-62.8773,-85.4962,-69.0404,-62.3908,-75.0722,-73.5915,-85.5427,-68.4112,-72.1545,-62.2252,-69.9596,-52.9060,-48.6145,-64.6020,-72.9962,-82.6234,-71.7283,-75.9698,-84.6938,-73.5462,-82.0043,-89.4346,-85.5145,-73.0904,-76.1860,-81.9029,-78.2995,-89.3718,-79.4563,-74.9706,-75.5591,-66.7095,-71.2795,-59.8366,-60.5564,-83.4084,-58.6396,-85.5728,-69.1670,-56.0337,-68.4972,-81.7399,-81.2046,-70.2295,-91.4284,-74.6072,-85.0863,-97.2989,-95.1339,-96.0277,-80.3518,-80.5540,-96.5638,-86.1717,-82.0902,-63.7058,-75.2259,-53.2375,-62.5484,-72.3357,-69.8656,-71.7192,-75.5458,-68.8062,-81.9178,-92.4166,-83.6986,-94.8984,-90.0457,-91.3170,-88.6480,-68.2011,-81.3843,-84.8860,-99.7836,-90.6693,-80.9956,-84.2188,-68.1900,-77.7946,-68.6604,-64.9580,-56.1577,-57.9947,-53.2618,-51.2463,-52.8181,-43.7894,-45.7307,-50.9422,-55.3331,-50.2413,-60.3206,-64.7131,-62.4917,-55.1979,-77.5551,-67.8354,-84.0591,-66.5797,-51.6496,-56.3696,-57.9492,-60.8713,-54.2719,-53.3609,-54.3611,-47.8117,-42.5098,-48.5644,-49.7345,-51.8936,-38.0765,-35.7916,-38.8400,-36.8356,-46.0275,-48.2864,-52.3150,-58.7033,-61.5229,-44.1418,-63.1972,-66.3948,-56.6654,-56.3306,-63.6170,-42.5008,-46.0676,-48.5324,-27.4003,-27.6155,-36.9267,-13.6646,-19.2746,-24.7283,-16.4771,-30.0940,-38.2042,-46.8430,-42.5941,-47.3816,-56.9125,-67.2621,-65.0219,-69.7282,-81.9790,-82.2750,-68.0433,-84.7167,-61.6496,-56.5371,-39.3224,-45.3517,-34.8522,-37.7249,-31.1523,-24.7078,-31.1884,-22.8260,-36.7316,-29.2296,-25.3956,-29.0117,-27.0041,-53.2840,-65.6642,-64.9558,-53.7073,-54.6616,-59.7850,-67.4139,-53.6483,-61.4118,-38.4311,-21.1098,-36.5691,-37.3663,-46.5640,-56.1811,-46.8705,-47.7614,-45.4756,-20.5888,-28.7861,-31.8368,-40.0105,-42.1336,-38.0629,-48.9492,-51.4639,-62.3075,-70.3868,-83.3051,-89.0487,-75.5640,-71.0683,-77.7169,-66.0674,-62.8295,-74.5785,-60.4030,-42.9964,-38.0450,-44.1840,-30.6690,-20.0570,-21.1631,-29.3740,-35.1955,-37.7215,-31.6841,-34.6568,-34.8982,-40.7645,-39.7510,-47.0004,-45.1093,-47.8122,-63.6046,-69.8890,-44.4070,-50.9862,-63.9298,-52.5644,-36.1576,-38.4150,-35.1063,-19.2626,-33.8173,-31.1446,-20.8594,-17.2931,-15.8901,-14.8445,-22.6272,-25.5265,-34.7699,-36.6140,-38.8749,-39.8980,-37.6027,-40.9101,-46.9182,-52.9662,-44.8598,-40.8916,-32.6917,-14.5491,-28.8234,-19.0872,-10.0355,-11.5213,4.3707,-13.8550,-13.0978,-22.0435,-20.4785,-16.0197,-13.3172,-18.8591,-17.0324,-31.0328,-35.2492,-17.8550,-38.6961,-53.8327,-57.6849,-58.4037,-44.0670,-49.9040,-44.9148,-42.1967,-34.6807,-43.3927,-41.9290,-27.8611,-20.6759,-21.6937,-28.7950,-20.1770,-30.7634,-32.4115,-34.5603,-19.6487,-24.6396,-28.1492,-25.6371,-22.7966,-61.8621,-63.9016,-65.3566,-68.7732,-69.2068,-62.0367,-63.0076,-47.1601,-41.9314,-33.7747,-28.3397,-24.9345,-27.5043,-9.9292,-25.5522,-45.5828,-43.8743,-48.9201,-36.9423,-37.8546,-39.8427,-24.7191,-37.5014,-44.1579,-61.8053,-66.7888,-60.6481,-61.5757,-75.2720,-62.0788,-56.0359,-54.6046,-54.8893,-48.0762,-39.1136,-30.7658,-21.3476,-15.3160,-24.0124,-24.9740,-17.7063,-17.0853,-25.2107,-18.2962,-18.0691,-18.9583,-22.7083,-48.1642,-49.3225,-53.1816,-58.0736,-65.6068,-71.8047,-60.0019,-62.0295,-53.8113,-56.1215,-53.2355,-37.3025,-30.5113,-20.6788,-6.4748,-19.1262,-22.1482,-36.6837,-39.5714,-22.4908,-43.1915,-49.7245,-46.0572,-50.1428,-59.3976,-56.9716,-48.8216,-65.9618,-71.2702,-53.8079,-55.4999,-64.5345,-70.0896,-60.0005,-47.7762,-34.8749,-46.2435,-36.8825,-30.5397,-48.4538,-25.1531,-36.6028,-26.7196,-25.9970,-22.9215,-33.4130,-60.2764,-53.4469,-47.5366,-50.3682,-46.6209,-45.3864,-49.2129,-58.8832,-71.3857,-59.3303,-49.2445,-54.2160,-37.5572,-30.7476,-36.9210,-57.9038,-40.1087,-11.6288,-26.0690,-34.1667,-9.7198,-14.0642,-7.8151,-14.4666,-16.2329,-18.6725,-17.2718,-8.7345,-23.6281,-45.8018,-33.0708,-25.1986,-24.7055,-33.9584,-20.9801,-16.9745,-5.7980,-29.0293,-29.5746,-26.9232,-27.6847,-31.5148,-42.7439,-22.7429,-12.4048,-14.0208,2.7682,-9.7223,-5.0682,-14.3569,-15.0700,-21.0097,-17.6107,-29.1878,-29.3901,-31.4426,-35.6882,-27.2720,-12.3124,-27.0146,-20.5024,-10.9561,-10.4188,-21.0238,-37.1902,-17.9236,-30.7157,-3.8405,-9.0884,-7.2983,-24.7735,-33.0879,-22.2148,-25.2128,-30.0678,-24.3598,-5.7808,-19.8782,-22.6650,-25.9233,-25.3213,-41.4062,-56.3106,-40.6120,-29.5672,-37.7976,-29.3147,-25.3838,-4.6591,-4.9305,-4.8344,-5.8047,-12.5969,-15.4535,-30.2628,-39.4927,-23.1937,-19.3334,-13.2471,-12.0152,-17.9835,-41.0307,-39.7696,-30.7463,-14.4228,-21.1214,-27.2924,-40.6858,-44.1022,-31.7419,-41.6823,-33.6266,-27.3138,-13.8815,-29.1735,-44.9574,-25.3526,-31.9785,-28.8841,-31.9099,-36.0695,-34.5259,-55.4265,-52.9967,-47.6399,-61.0817,-70.0763,-54.0359,-49.9846,-61.4583,-74.9558,-57.1304,-68.7700,-53.8187,-57.8729,-56.7742,-46.7351,-40.5296,-39.0327,-28.3317,-32.6284,-23.7431,-31.2480,-43.8879,-51.3983,-60.4291,-50.7464,-60.2322,-78.4431,-68.7087,-68.4257,-52.9913,-75.7474,-72.9403,-49.5345,-44.2481,-57.8265,-55.3022,-45.4628,-63.2492,-55.9034,-35.1039,-15.3354,-23.9836,-17.5656,-6.3835,-0.6614,-22.6261,-22.4657,-15.1072,-41.9369,-32.1581,-49.2531,-46.9772,-52.3267,-60.2993,-59.9214,-47.9314,-39.6053,-44.8646,-40.5507,-34.1305,-39.2625,-21.9875,-12.9100,1.7018,-18.2182,-20.0232,-10.4432,-11.4053,-24.2336,-26.9308,-24.6842,-38.5027,-40.6860,-40.3491,-39.9533,-58.9828,-76.0858,-81.0071,-77.4882,-75.4803,-65.3728,-68.7033,-61.6050,-55.7600,-45.1175,-25.3030,-24.2808,-26.6415,-27.9149,-24.9380,-16.7714,-14.9608,-26.2478,-23.7457,-38.3993,-23.3395,-19.1878,-26.8233,-16.8233,-38.1302,-35.2834,-38.0521,-39.6041,-38.6525,-34.2699,-24.6163,-18.0062,-24.2615,-17.4966,-23.4155,-10.6878,-14.8332,3.1884,13.9970,-4.8033,-21.6352,-8.4915,7.2807,3.2647,-0.1731,2.8575,-2.3412,-0.3968,-4.7023,-5.0663,-16.7594,-17.9468,-29.2038,-30.7935,-13.3016,-20.5393,-16.1041,-19.2453,-21.9347,-12.9737,1.2627,-3.9916,-19.2166,-5.9729,10.5556,-4.7014,-16.1083,8.8209,-0.0883,-11.0270,-16.4729,-10.8563,-24.0610,-16.3717,-22.9389,-28.8709,-32.3335,-35.0868,-27.9897,-41.8392,-45.1280,-24.2299,-17.5299,-14.4095,-12.2981,-14.0266,-4.7387,-9.0870,-12.7975,-9.6742,3.3822,-24.6788,-17.0542,-34.7202,-29.1825,-35.5290,-49.8632,-34.8593,-41.3376,-52.1353,-27.9270,-17.3300,-14.5775,-20.8907,-19.9752,-6.0702,0.9073,-2.3289,-15.8870,-6.3678,-2.8628,-15.0345,5.7621,22.8834,12.8079,14.4970,1.0580,-6.5300,-9.2986,-22.8152,-26.5305,-11.6498,-13.6146,-32.4890,-22.1483,-28.4740,-25.4347,-21.5280,-15.7127,-17.8120,-6.3569,-10.0814,-7.2455,-12.2383,10.4680,1.5337,-1.1821,-19.4827,-15.1498,-0.5064,-10.9195,-29.2931,-13.1952,-24.1078,-15.5319,-29.1650,-31.9331,-30.2588,-49.6748,-54.1732,-48.2332,-41.4789,-56.9897,-57.1202,-36.1595,-41.1333,-38.7753,-44.7127,-31.6470,-19.2397,-8.9844,-16.4654,-0.4413,-16.7883,-18.2288,-3.9711,-15.9794,-26.1612,-25.6269,-16.5655,-20.1879,-41.3169,-40.6624,-41.9384,-49.6653,-41.8175,-36.4193,-23.9677,-20.5156,-29.6120,-26.3156,-17.5299,-22.4359,-12.9259,-16.2788,-22.8793,-20.0856,-2.2695,-11.3072,-3.0396,-20.7709,-19.1104,-10.3647,-42.4467,-54.5853,-36.6899,-52.4266,-50.9580,-54.8920,-50.1670,-57.1500,-49.9366,-43.1536,-51.0754,-46.5444,-40.9962,-44.2157,-32.7679,-24.3371,-25.0212,-22.4531,-19.9801,-23.1802,-13.0604,-9.6605,-26.0968,-24.8697,-32.6096,-30.8249,-25.2393,-38.1253,-57.6256,-42.7198,-35.9061,-45.1647,-38.2911,-50.5421,-55.4081,-42.4716,-50.8782,-35.4306,-21.9702,-42.7147,-38.6793,-32.7414,-22.8766,-20.6244,-7.1673,-10.6679,-18.4157,-25.4553,-29.8392,-41.8793,-35.0673,-49.2589,-37.2265,-34.4303,-43.5008,-47.5991,-46.7949,-67.0735,-42.4033,-37.7667,-32.4151,-22.9827,-26.4335,-31.8698,-22.5602,-17.8891,-16.3994,-15.4896,-12.4571,-30.0940,-24.9144,-22.2775,-47.9690,-41.1190,-48.9756,-51.3379,-56.2587,-49.5778,-36.2910,-58.2848,-59.2785,-53.8019,-27.8680,-36.9975,-31.8820,-30.3192,-29.3402,-16.3751,8.4861,2.3127,-15.6360,-9.3430,-22.7713,-30.7119,-11.1002,-9.6560,-15.4792,-31.5305,-34.0105,-30.5715,-36.6475,-46.8365,-56.6225,-42.3432,-33.1280,-45.2579,-29.5821,-25.7389,-19.0203,-16.4074,-27.4024,-32.9181,-21.2287,-8.1957,-16.7934,-19.8703,-24.6201,1.9662,-2.3055,-5.6934,-7.9589,-16.0535,-26.7783,-30.2926,-31.0765,-10.4108,-26.0291,-36.0460,-30.9970,-37.5585,-18.4073,-28.1373,-16.6645,-7.8634,-9.9927,-10.6648,-10.2400,-10.2460,-13.7213,-11.1565,1.6311,-11.7115,-21.3020,-21.0740,-11.5981,-16.8584,-23.2220,-33.1488,-32.4389,-43.3798,-41.8715,-32.2954,-33.8915,-47.7597,-46.1198,-33.9611,-21.1374,-43.4641,-29.1097,-36.5810,-29.5268,-24.1218,-22.6956,-22.1957,-18.6820,-24.1357,-30.7969,-15.4946,-15.6050,-20.5167,-40.9302,-31.5179,-30.5608,-43.8402,-36.9160,-33.3415,-15.2978,-13.9091,-35.5050,-6.7861,-24.3791,-9.4576,-6.2747,-17.4709,-5.3112,-5.3662,0.9558,0.9323,6.7134,-3.0987,-7.4984,-1.7669,-8.9482,-15.1132,-32.0248,-40.8008,-40.4655,-40.3650,-28.9448,-26.3617,-32.0813,-19.2149,-17.4610,-25.8498,-30.7610,-12.2574,-20.2426,-19.3715,-21.9451,-26.3681,-27.5940,-11.6024,-15.9976,7.5801,-24.1303,-31.7051,-20.4738,-16.8010,-32.2965,-38.8018,-62.5826,-61.4572,-67.7403,-74.5444,-61.9083,-76.2142,-67.0919,-55.1485,-49.0418,-32.7456,-24.8132,-14.4767,-9.9187,-5.1063,-11.7896,-10.0901,-9.4054,-14.9152,-22.5649,-26.7843,-33.1693,-28.4467,-36.1778,-45.4327,-49.9939,-54.4921,-39.8444,-46.2466,-52.9390,-41.1884,-49.4741,-52.1849,-31.4996,-36.7456,-31.9292,-22.3767,-10.1442,-15.9548,-22.4059,-8.8275,-11.5397,4.1519,-11.9092,-30.7164,-12.0056,1.0087,-2.8655,-8.9133,-34.7508,-29.4678,-43.7665,-42.7407,-54.3291,-50.6263,-46.2153,-30.8153,-27.0987,-30.1833,-39.3301,-29.4899,-25.6971,-8.9989,-2.4963,-5.0066,-22.9318,-41.2738,-33.1510,-9.0578,-21.0996,-24.5316,-8.3283,-13.1935,-27.3073,-34.2609,-35.1737,-31.7566,-21.8138,-29.4378,-27.6521,-26.0110,-41.7798,-29.3687,-37.0368,-53.4553,-47.9480,-32.3406,-13.9350,-11.2361,-6.7521,4.5923,-19.1700,-14.5148,-14.7557,-25.0882,-24.9583,-36.5417,-18.4467,-30.5423,-14.7329,-28.5688,-24.8061,-32.9523,-34.2872,-36.4008,-28.5125,-23.8269,-27.2555,-18.6492,-13.2512,11.8367,1.3830,11.8959,0.6633,-0.0526,-11.9379,-6.8356,0.3332,9.2861,-0.6194,3.5058,-3.2283,-1.5543,-14.8658,-3.8944,-27.3103,-34.4461,-33.8384,-5.5215,-12.0123,-17.9868,-4.0651,-3.0659,4.7634,-19.6238,-12.4765,-13.1559,-20.7676,2.1686,-3.2883,4.6499,13.4579,-10.5044,-18.0722,-17.9737,-16.9556,-32.8940,-37.3348,-28.2047,-37.1076,-57.5733,-50.3887,-27.1339,-31.7101,-38.5695,-31.7423,-25.5800,-18.3967,-30.5320,-24.1575,-12.1010,-10.8241,-6.2523,-17.7439,-6.5930,-1.1567,-8.4157,-16.0396,-23.5031,-32.9893,-29.9091,-23.2290,-36.4904,-45.7796,-43.4061,-37.1980,-37.7235,-28.0171,-22.3588,-14.9638,-7.5807,-10.3589,-24.6252,-24.3028,-16.7107,-18.4317,-22.6748,-17.5713,-17.1083,-18.5544,-14.6084,-4.3107,-9.9421,1.5709,-18.7801,-28.7277,-29.5650,-29.1032,-26.4982,-16.7821,-36.6682,-26.5591,-30.4748,-40.7551,-20.4140,-13.5581,-26.8789,-22.4406,-32.9954,-26.8624,-7.9791,-17.7571,-23.4700,-15.6116,-22.1150,-23.8513,-19.1436,-35.8775,-36.9532,-29.0990,-22.1650,-22.2336,-35.9770,252.8385,228.5679,231.1414,201.6058,206.0632,187.0224,196.3288,178.2113,156.5380,153.1195,157.2985,152.5895,136.0110,127.5750,122.9076,107.0016,85.5372,79.9576,81.8063,83.5087,78.9667,63.7888,51.0175,44.8478,27.8464,24.7021,16.3769,12.9874,25.8616,28.6740,34.4808,35.2800,34.1946,36.2201,31.9600,32.8611,23.7592,29.2293,28.0465,14.2445,13.0913,3.7412,-0.9146,-6.3221,9.5873,7.8734,3.1404,9.9171,-4.1487,14.2836,-9.0576,-9.7430,-12.7961,-4.8012,1.6531,-0.5363,14.1908,5.2616,2.9942,-5.1986,2.6026,-2.0081,-8.2915,-8.8844,11.6637,-14.1273,-31.2628,-30.5463,-27.8629,-25.5265,-27.8016,-31.2432,-43.3743,-40.0460,-49.2188,-47.8481,-47.6254,-43.4326,-21.0913,-16.3929,-11.6622,-15.3323,-11.5090,-27.0071,-8.9409,-11.5028,-10.9589,-17.3707,-33.7522,-42.9032,-40.2066,-33.2848,-37.8207,-58.4983,-61.7423,-62.2040,-62.1644,-70.3876,-70.3711,-62.1193,-51.6208,-54.7831,-41.8272,-28.4377,-39.6653,-27.2349,-13.3963,-20.1363,-18.1933,-4.1790,-11.9063,-3.4742,-10.1156,-18.8718,-16.6324,-20.0426,-20.3144,-35.3605,-35.9379,-37.8275,-35.0985,-46.2369,-31.6514,-33.6768,-42.6288,-19.0722,-5.5608,-10.8827,-8.9608,-20.9056,-36.4576,-36.9757,-20.3547,-24.2065,-26.4322,-19.8939,-17.1666,-33.9366,-28.4130,-17.0936,-36.4325,-27.7039,-37.7251,-31.9791,-28.1562,-31.2855,-33.2062,-47.1208,-32.2645,-42.1831,-32.3398,-27.4166,-22.6313,-21.8427,-29.3438,-29.5174,-10.4653,-11.0356,-5.1974,-16.6460,-28.6771,-15.6485,-26.3691,-26.8942,-35.6817,-25.5070,-46.8126,-48.5628,-48.1639,-57.1886,-45.7364,-36.1344,-50.2472,-48.0129,-67.5883,-46.4244,-41.9897,-39.9428,-22.8936,-29.4834,-28.7437,-31.4708,-43.3943,-37.0097,-23.5625,-45.4778,-38.5262,-33.0515,-17.9663,-27.1630,-39.6873,-31.5282,-46.6372,-39.1650,-54.4668,-39.0915,-47.6052,-51.0162,-40.9312,-32.6293,-32.0854,-20.7725,-22.5970,-10.1779,-7.2946,-9.2947,-9.9842,-3.5079,3.0618,14.4807,5.8817,4.2418,14.0249,-10.1164,-19.1718,-25.4716,-43.2984,-43.8485,-43.8847,-35.2846,-38.6253,-33.5800,-23.0850,-22.1214,-28.0617,-28.4460,-12.2601,-13.5436,-29.7262,-19.8172,-12.7198,-6.7784,-6.7926,-14.2602,-17.3713,-27.3114,-38.8680,-41.6710,-44.3527,-51.1676,-68.0931,-60.0585,-56.1200,-58.1972,-56.7042,-51.1301,-61.0473,-61.9312,-45.9603,-29.3428,-17.2236,-22.8392,-38.6896,-29.3932,-23.5785,-23.4084,-23.5384,-36.1565,-32.9200,-32.8368,-36.4909,-54.8247,-61.7713,-83.1491,-72.6912,-72.1209,-75.7885,-67.0299,-69.4115,-82.7896,-63.8503,-65.0243,-52.5911,-59.2192,-46.6503,-42.9699,-35.8373,-35.2088,-39.5080,-50.3307,-50.9576,-43.6977,-39.7885,-44.3034,-38.7111,-48.4407,-57.3081,-54.3583,-51.3004,-49.6381,-41.1495,-60.4046,-58.6048,-54.6391,-57.8288,-62.1156,-68.2532,-59.1433,-59.9935,-60.9404,-50.0852,-45.2531,-29.1208,-27.2482,-38.6054,-37.9410,-49.9759,-41.3420,-33.8913,-33.6321,-46.7681,-40.6741,-61.8589,-62.0350,-45.4767,-37.2482,-46.6759,-55.0846,-72.0419,-68.1491,-46.7021,-43.3849,-42.2104,-27.2216,-18.6026,-7.4928,-8.0532,0.9585,-6.7949,-7.7193,-1.1535,-13.4620,10.0332,-8.4175,-14.3441,-15.7803,-10.1434,-23.8919,-44.4116,-27.2582,-38.6854,-38.3302,-45.4445,-30.9604,-33.2952,-23.6292,-17.7003,4.8088,9.4875,-3.6964,-5.0215,-6.8790,2.5171,-8.8095,-11.7697,-5.3676,-19.1336,-21.8443,-34.2469,-18.6158,-9.9135,-20.4049,-21.6244,-41.4496,-38.7296,-46.8195,-40.5956,-30.8606,-34.7807,-44.6430,-41.5412,-34.3984,-11.9567,6.8985,2.7579,-19.1042,3.3268,-0.7617,-21.5448,-15.2687,-6.5125,-15.2480,-33.0645,-26.8688,-47.8887,-35.9314,-24.8380,-32.7215,-35.2712,-22.5860,-17.1347,-11.6350,-11.4464,-7.9329,-8.5979,-10.9729,-11.6347,-14.0490,-20.3176,-16.5704,-8.2138,-0.3630,8.8456,-1.5629,2.9590,-0.2558,-13.9193,-13.7923,-22.0861,-15.0394,-24.0614,-40.3930,-31.2160,-20.0606,-32.0100,-27.9228,-26.9169,-35.9781,-24.6300,-33.9133,-23.9787,-6.3543,-7.8711,-11.0988,-5.5895,-9.1556,-9.9435,-8.8350,-22.1357,-22.2749,-30.1254,-43.8660,-40.4909,-24.0159,-35.3685,-52.3889,-55.0013,-40.6267,-24.8964,-32.1401,-20.0612,-22.9286,-21.9663,-30.3530,-11.9753,-14.8736,-5.5554,-14.3440,-6.7605,-4.2181,-8.1253,-6.2280,-13.5402,-17.4904,-3.8301,-11.8802,-30.4638,-27.8806,-41.6689,-46.9612,-34.0341,-50.7552,-32.7206,-36.9837,-34.3015,-25.3566,-20.9486,-26.1938,-12.0694,-12.6525,-19.0201,-6.0225,10.9041,15.4705,5.7323,-10.3883,-0.9490,0.8190,-3.3754,-8.0182,-17.3071,-27.2096,-37.9260,-49.2964,-34.1173,-32.2843,-29.9090,-39.9216,-21.0853,-5.9045,-16.2573,-15.2487,-7.0077,6.9398,-11.8751,-4.6568,-9.3074,-6.0642,1.5398,14.1785,17.1770,3.2530,-5.5213,8.2788,-17.2427,-27.5633,-36.8971,-15.2009,-14.3255,-8.1918,-34.4729,-17.6472,-24.0709,-20.7123,-33.4487,-8.8818,-8.5851,-12.8195,-7.8907,-17.4836,-16.6558,-16.4197,-23.9198,-3.2596,-0.6920,-16.6453,-14.1656,-21.3753,-22.1282,-32.9070,-36.4519,-24.0204,-29.6927,-16.9865,-31.8217,-38.8961,-21.6197,-21.7181,-18.5357,-14.4991,-26.2486,-22.1384,-20.8880,-26.3317,-15.3162,-1.4554,-10.2172,-25.2579,-26.8485,-5.2337,-19.2880,-28.5331,-30.8871,-39.7449,-21.6475,-32.4260,-22.5545,-30.1697,-21.8769,-28.5361,-24.0639,-22.9669,-22.0451,-22.4745,-22.5640,-6.6117,-23.8445,-17.9668,-15.4125,-12.9094,-19.0768,-16.6196,-24.2257,-38.2629,-32.2929,-44.0820,-51.5957,-39.7033,-37.5187,-39.8843,-45.0829,-66.7492,-61.9370,-37.2628,-54.3689,-43.5434,-48.5421,-41.2238,-40.7580,-28.6153,-27.6137,-30.3222,-31.4595,-20.3567,-26.2217,-10.3585,7.8892,-3.0742,-15.2913,-30.7282,-52.0319,-51.6776,-36.9221,-54.5967,-59.1424,-58.6125,-67.1248,-68.3035,-58.8477,-61.5934,-57.5646,-51.6318,-36.7752,-35.9181,-30.4212,-20.4619,-21.9185,-20.0279,-12.0922,-9.9804,-16.8160,-18.5687,-27.5200,-29.5482,-19.0768,-22.2916,-25.2446,-29.3934,-32.7203,-28.8471,-26.8352,-27.8441,-33.6702,-22.7857,-28.0579,-24.0560,-23.6476,-21.9510,-24.4316,-8.1544,9.6752,-12.4930,-13.2654,-18.3598,-19.0216,-8.1382,-27.6135,-34.5162,-47.1160,-46.4286,-52.9637,-34.9864,-20.5196,-47.5132,-60.6037,-44.3274,-52.1471,-38.1626,-47.1695,-48.7685,-41.4239,-31.2275,-35.2016,-35.2747,-31.8864,-36.2818,-24.4416,-36.9778,-25.8278,-14.4409,-16.7252,-16.8171,-22.7698,-16.8288,-21.5687,-29.1914,-30.5255,-37.0305,-51.2484,-59.8665,-47.1390,-43.1066,-39.7708,-53.8348,-52.5010,-39.5140,-41.4802,-51.1087,-34.2318,-44.9607,-34.0601,-11.4068,-7.4484,-30.7531,-28.2955,-25.0536,-16.2857,-36.4216,-40.9678,-31.5163,-48.4229,-48.6841,-67.8682,-64.0353,-74.6297,-68.2822,-51.0127,-53.3696,-53.5370,-52.8954,-44.7290,-35.6263,-30.4559,-53.9943,-39.9070,-27.8083,-26.5148,-22.2851,-24.5545,-31.4306,-36.1628,-35.4634,-29.0553,-44.6493,-43.5444,-41.2300,-33.2229,-45.9828,-38.1142,-36.0032,-45.8772,-47.1908,-45.9212,-40.9179,-28.9449,-29.3880,-28.4122,-36.2166,-30.4990,-5.7788,-20.6067,-25.6598,-11.3679,-20.7216,-24.2212,-34.8119,-42.1333,-47.2642,-59.2194,-52.3171,-48.1263,-38.8748,-55.0066,-73.8220,-54.0019,-28.6983,-40.2344,-52.6567,-43.5061,-51.9269,-55.3347,-45.7476,-41.6240,-54.8449,-48.8219,-38.8430,-40.2364,-37.4127,-49.5624,-40.9886,-54.5830,-41.5264,-68.0258,-67.7073,-55.0521,-46.1084,-56.2649,-57.7950,-63.9946,-72.7998,-69.2303,-72.2899,-68.0816,-52.2417,-56.6317,-44.4580,-50.3022,-36.9699,-36.8812,-22.8259,-29.1778,-28.1859,-46.6180,-48.8746,-61.2142,-63.3798,-67.4058,-76.8451,-85.9004,-92.1582,-99.4072,-87.6835,-72.6427,-84.8176,-77.2220,-49.2205,-58.7761,-48.6697,-41.0480,-40.2225,-53.8260,-45.6339,-49.6246,-22.7155,-50.9747,-52.8233,-54.1658,-56.3812,-34.6620,-29.7803,-57.5242,-73.6021,-83.6676,-70.8076,-69.5910,-70.2589,-61.2971,-56.6384,-54.6779,-57.3108,-58.2344,-40.9659,-38.7577,-28.9794,-28.7732,-45.2751,-45.6875,-39.0942,-36.9526,-21.7487,-21.8354,-17.9937,-25.0753,-29.3125,-25.6437,-34.3656,-40.2153,-34.0678,-46.6365,-53.5514,-56.7949,-43.1928,-36.6473,-42.8639,-34.6935,-55.0254,-39.8744,-34.4973,-32.9329,-8.6067,-24.3717,-29.9543,-30.6524,-47.0086,-39.2021,-27.6449,-41.0749,-44.5862,-30.7361,-32.8489,-44.8899,-58.1098,-62.3117,-69.8222,-73.3849,-73.3478,-68.5347,-68.4975,-66.1744,-46.4583,-36.7397,-22.1104,-34.2094,-25.8456,-22.8971,-24.8947,-17.1726,-17.6832,-24.8222,-34.4022,-41.9497,-54.4777,-55.2069,-56.8516,-61.3648,-50.1526,-46.1315,-61.9444,-56.6723,-64.5078,-58.5369,-55.9959,-43.2311,-45.5584,-30.3208,-34.7305,-35.7583,-34.9421,-18.3255,-8.0206,-7.4241,7.4465,-0.2974,-18.3259,-23.3629,-22.4480,-33.3873,-22.7751,-29.9310,-33.6090,-31.2049,-25.8394,-38.4440,-41.1345,-28.8647,-32.3007,-41.8181,-39.2370,-35.9072,-34.9501,-47.4022,-48.5722,-41.5897,-38.9801,-33.1623,-22.6297,-27.8372,-29.0489,-41.5977,-38.5568,-32.0926,-35.0806,-47.3750,-42.2536,-30.0888,-48.9364,-58.2574,-55.6568,-53.2542,-53.7571,-52.8212,-60.7369,-53.8538,-42.3276,-37.2924,-35.3844,-28.3692,-21.7771,-13.8257,-19.4452,-17.9322,-24.9420,-19.1511,-21.4573,-21.1963,-25.9780,-32.2514,-41.8181,-42.9672,-41.2944,-56.6626,-58.8944,-52.4889,-50.3617,-57.8651,-51.3935,-50.4872,-62.1372,-44.3188,-37.7056,-32.6765,-21.2497,-40.2023,-42.5891,-55.0685,-40.2721,-37.5376,-37.1636,-26.0200,-29.6155,-39.8519,-46.3649,-40.4273,-51.2104,-61.6718,-68.2995,-55.8343,-39.9534,-25.7026,-39.8379,-46.8281,-46.1410,-31.2487,-40.7465,-19.8571,-11.8393,-12.7377,-16.4604,-11.3959,-15.8058,-22.7983,-8.0583,-25.3360,-26.0071,-49.8882,-26.4923,-24.7738,-37.9123,-37.2159,-39.7388,-48.7412,-41.5180,-48.9510,-43.9820,-26.4482,-24.2897,-34.7084,-33.6827,-28.4885,-16.1669,-24.5541,-13.4314,-9.2713,-15.2585,-11.1516,-23.8681,-29.4060,-37.3491,-28.0437,-42.6236,-39.4839,-45.3172,-54.5994,-50.0505,-33.8745,-40.5329,-46.9688,-33.9753,-27.5412,2.1219,-16.5264,-20.9248,-8.7570,-29.1218,-13.6202,1.7317,-15.5932,-30.8576,-22.1214,-9.8030,-21.3353,-36.2932,-40.3441,-41.4641,-35.4006,-29.3318,-34.1555,-44.1255,-61.4313,-62.1952,-48.3657,-57.8351,-47.0577,-39.3831,-45.9688,-40.7406,-27.5434,-16.6142,-8.8332,-11.3012,-17.5727,-26.8276,-31.8246,-29.1823,-24.1937,-29.6955,-50.9631,-43.7032,-29.3851,-39.0487,-48.7047,-22.8279,-36.9923,-35.3801,-33.8952,-37.5840,-34.1031,-8.3231,-10.2964,-9.9732,-11.6681,-20.7646,-5.7681,-19.4411,-15.9111,-32.0704,-36.5816,-20.7053,-29.5443,-37.9218,-17.7304,-4.0723,-11.7299,-27.6340,-28.5341,-22.3438,-21.6478,-32.2903,-29.1963,-23.8346,-18.6484,-19.1291,-12.9920,4.4419,8.8484,8.4132,18.2944,7.1841,20.9078,16.8555,30.4829,-5.3380,-8.9359,-3.3096,-4.2686,1.8330,-19.5644,-13.2588,-13.3338,-21.1148,-33.9036,-17.6008,-16.9566,-22.0582,-24.8526,-24.0680,-23.8183,-17.1572,-20.4575,-26.7749,-27.2246,-22.2310,-12.6668,-12.5847,-10.8747,-11.1084,-20.3382,-10.4221,-26.8728,-34.3443,-34.5658,-55.2963,-50.2399,-39.1334,-55.7829,-34.4003,-28.5659,-40.6268,-34.1097,-26.0993,-33.7610,-23.8192,-31.8813,-29.5261,-27.7310,-15.7455,-8.1669,-19.3194,-30.0392,-29.1257,-16.8968,-7.3717,-21.7804,-32.8947,-30.8375,-42.6071,-49.7637,-55.3680,-43.5192,-69.8865,-48.1998,-52.7882,-48.8746,-31.4737,-45.4594,-43.8358,-35.5867,-28.4914,-32.9910,-39.4518,-30.0684,-11.3539,-17.4995,-17.1282,-24.6376,-28.7696,-15.6490,-32.1866,-38.7814,-32.9408,-49.4640,-52.4251,-48.8268,-47.9880,-43.3251,-29.4961,-43.5136,-62.5581,-41.2942,-36.8728,-32.5950,-27.2465,-25.8367,-23.0526,-16.9872,255.1603,238.9996,249.8118,207.8083,191.0239,163.5040,157.3589,136.5395,127.5530,126.8156,112.2048,98.9623,74.6929,89.9874,66.4616,79.2921,73.1246,62.9758,48.1949,50.5048,44.1501,44.3919,38.1353,24.0383,42.9503,32.2635,22.7346,16.5566,15.6111,-1.8212,-17.8645,-4.2231,-7.3111,-19.9970,-32.8281,-30.6470,-44.6475,-43.9963,-39.4055,-25.9512,-31.3314,-27.6522,-7.3228,-15.2274,-16.4218,-21.4704,-24.9543,-33.3278,-9.4486,-10.5916,-17.4107,-19.4691,-18.9900,-39.6928,-39.2782,-43.6087,-26.3209,-38.4125,-67.9226,-67.7456,-57.8927,-59.5101,-61.1844,-35.0439,-41.5586,-40.3212,-45.0921,-33.0212,-36.9600,-33.0923,-25.1560,-35.9266,-12.1951,-18.5637,-15.4045,-35.8361,-41.1538,-44.9875,-37.9687,-42.4513,-51.8403,-60.9560,-65.4074,-57.9088,-60.4533,-59.2645,-41.6960,-48.8959,-39.4914,-49.4107,-42.6806,-42.5877,-48.6413,-22.8082,-27.2534,-20.6805,-29.1152,-25.5037,-27.2608,-11.9453,-17.6515,-19.1324,-15.4852,-21.5443,-33.2637,-56.6644,-58.6940,-62.4666,-52.1349,-58.3333,-71.1309,-64.5205,-70.4290,-58.6328,-62.5611,-41.0772,-32.3479,-16.5947,-21.4927,-30.1978,-23.6707,-40.4032,-38.9097,-32.3431,-50.3402,-39.1361,-45.6699,-41.3068,-49.9685,-41.7510,-43.9263,-37.0967,-49.8628,-58.7401,-56.8273,-61.4874,-45.0534,-35.6580,-19.8406,-38.7675,-36.1897,-33.7190,-23.3718,-17.5978,-16.3292,-7.1894,-16.5992,-6.1327,-9.4295,-16.6569,-19.3540,-4.9316,-30.7008,-30.4352,-38.4731,-23.5499,-32.2953,-47.0064,-40.8012,237.1537,216.9928,212.6077,199.1866,186.5767,175.4862,169.8431,160.4966,150.0586,138.9018,145.4475,119.0091,117.7245,105.6344,107.5002,77.0841,63.1483,51.2443,48.2148,26.7670,21.1008,3.5344,14.1403,5.4274,-3.3577,12.1542,-2.3036,11.2596,5.3466,22.5008,17.2786,2.9999,4.1411,16.1993,11.5136,12.5771,20.6862,4.5873,6.7131,9.9105,2.8975,-11.8159,-22.4141,-39.5012,-38.8094,-30.6190,-34.6586,-33.8057,-29.0945,-44.8484,-37.8686,-31.6458,-32.2991,-12.3362,-11.0632,-12.0362,-2.2716,-24.4882,-15.1485,-12.0023,-21.1189,-15.3222,-25.1029,-14.5222,-14.4040,-27.6097,-49.6293,-48.1489,-39.4473,-47.9847,-67.9212,-41.1941,-46.3775,-51.9114,-37.9898,-46.2569,-42.3693,-27.0576,-9.3772,-5.8830,-13.0771,-11.5077,-10.2373,-24.1124,-12.9864,-21.9139,-17.2157,-22.4809,-21.4567,-31.3139,-57.5392,-37.2690,-32.1468,-35.1576,-39.0145,-28.2037,-37.5365,-37.8452,-33.9268,-40.2242,-51.5692,-60.6118,-41.4015,-25.0853,-25.6167,-13.3349,-12.2029,-2.9599,-12.0588,-7.6093,-6.5642,-4.4153,-30.4172,-25.4244,-15.6291,-13.1486,-26.5612,-34.5320,-29.3086,-30.5469,-40.0846,-34.5648,-24.9398,-18.1348,-25.7315,-31.2751,-30.2230,-24.1416,-26.0791,-23.6230,-28.8840,-12.8521,-28.1418,-24.4214,-17.9855,-7.0980,-27.8162,-36.7775,-38.6376,-30.3363,-65.4584,-54.7653,-27.4497,-44.4920,-60.6777,-54.5674,-50.9229,-41.9200,-32.9861,-43.3679,-50.1388,-41.7023,-52.2965,-57.0699,-62.5984,-60.3180,-54.1239,-53.8816,-44.7927,-59.1697,-76.1911,-62.2704,-56.6027,-55.5538,-42.3666,-57.5967,-51.4172,-59.4998,-63.5679,-70.0340,-65.2108,-67.4300,-58.4600,-57.7257,-57.5079,-38.8501,-38.0852,-41.5281,-35.2514,-35.3548,-39.6918,-33.4459,-38.8617,-43.6630,-48.9814,-39.0762,-32.0194,-38.1910,-16.8438,-28.1672,-30.2105,-36.6310,-35.9004,-61.2034,-77.6619,-60.7425,-47.9755,-45.8077,-39.7848,-28.3573,-31.2232,-28.2370,-39.8401,-38.3250,-17.3882,-27.5034,-36.4233,-39.8373,-43.5628,-48.1524,-56.5531,-60.3272,-52.7543,-54.3152,-43.6331,-50.0081,-53.7742,-61.8462,-57.0595,-50.3387,-45.3067,-46.9994,-36.4465,-39.8901,-33.3707,-41.3097,-47.9039,-28.6867,-20.0308,-19.1464,-21.2552,-29.1830,-34.1682,-26.3121,-29.9336,-39.8404,-33.6384,-51.2630,-51.9670,-37.7113,-45.6771,-58.5115,-57.5243,-62.6649,-83.9573,-69.2658,-56.8196,-52.6568,-42.2711,-31.8582,-39.8951,-42.9651,-31.1814,-32.7636,-31.2529,-29.6884,-16.0548,-49.9297,-42.7334,-41.4955,-48.4272,-38.6702,-41.8550,-52.3671,-57.9838,-59.0965,-59.9218,-59.5582,-58.9225,-53.2440,-49.0062,-61.5522,-59.5871,-57.5059,-32.9938,-29.9248,-26.8121,-35.8445,-13.1698,-27.5104,-23.8269,-21.1525,-36.7158,-36.2158,-28.8507,-11.4542,-30.4197,-27.1025,-34.0756,-46.9570,-59.6454,-49.3548,-64.8941,-44.1669,-53.9981,-73.9228,-54.1287,-40.9087,-42.1907,-34.4011,-44.3820,-46.9088,-36.0976,-33.7703,-35.3903,-27.1814,-44.0639,-41.5072,-48.7842,-66.1935,-68.0455,-57.7692,-44.9748,-59.5158,-83.4900,-93.4829,-63.4843,-61.2645,-50.3995,-59.8053,-47.7058,-39.7869,-45.8836,-42.9487,-35.6472,-28.9580,-30.5561,-24.6449,-37.1935,-44.1363,-24.3569,-45.0638,-51.3156,-51.4672,-54.8285,-61.5899,-62.9021,-65.1577,-68.1395,-84.0228,-54.6194,-64.2110,-61.2508,-72.7506,-64.9181,-59.1179,-40.5872,-49.8416,-40.8180,-49.0824,-48.7747,-46.1680,-39.8060,-66.7081,-70.7957,-78.7425,-76.3994,-77.7199,-86.4113,-84.0960,-93.7911,-84.8771,-66.3598,-69.9932,-73.3760,-82.7332,-85.4307,-77.2644,-61.3406,-46.7622,-40.5431,-39.9994,-47.4002,-40.5278,-40.3646,-36.3583,-22.5002,-50.4608,-43.4246,-36.6965,-59.7570,-60.1316,-61.9924,-64.0859,-74.5376,-59.9484,-58.1675,-61.5587,-71.9133,-65.9360,-69.8076,-60.4592,-38.6395,-50.8667,-59.3642,-49.1956,-57.3661,-54.5890,-49.2493,-39.7657,-26.4102,-27.6651,-31.7483,-46.9812,-46.6769,-43.7790,-52.7906,-52.9630,-49.9236,-56.5291,-52.3252,-43.2593,-54.9246,-47.1134,-53.0175,-68.9782,-65.9211,-59.8360,-53.7627,-41.2485,-28.9027,-20.3427,-25.9972,-33.9329,-45.0526,-28.9111,-26.0648,-22.8085,-9.7939,-18.8134,-30.3199,-49.9490,-52.8297,-53.3846,-59.4582,-51.3564,-52.9646,-61.7614,-44.9505,-51.2101,-62.0650,-46.0547,-36.0345,-26.6344,-31.0253,-20.8500,-24.1698,-35.0428,-32.8023,-10.7437,-7.4411,-13.5418,-7.9718,-14.3698,-24.1708,-39.3846,-26.3749,-38.8423,-52.4328,-58.1766,-55.5296,-67.8796,-51.8953,-58.9452,-48.0950,-49.6579,-44.5983,-42.0963,-30.0976,-8.4318,-7.8965,-15.1067,-18.2102,-12.4572,-13.9309,-31.9637,-33.7847,-47.3520,-28.5239,-24.2729,-46.7498,-68.7363,-55.2346,-66.8035,-66.4330,-56.5016,-58.6180,-63.9714,-63.6348,-55.7482,-56.9795,-58.7099,-49.0630,-40.0039,-42.3092,-48.5887,-34.0238,-58.4715,-44.1209,-42.0615,-36.1752,-32.8518,-32.5896,-49.0730,-45.1085,-52.7832,-67.7604,-46.7270,-68.8108,-57.8960,-55.6171,-56.3718,-59.4086,-50.1515,-63.3403,-51.0404,-49.2697,-45.2114,-31.6260,-23.8609,-31.7964,-25.3728,-32.6108,-42.9631,-42.1276,-45.8689,-51.7880,-47.9823,-54.9834,-74.3007,-77.8388,-64.5714,-71.7143,-63.6724,-60.2007,-74.8272,-72.2077,-45.9331,-50.6057,-55.6869,-57.0830,-51.7722,-50.9447,-33.6508,-40.6361,-28.4562,-40.2890,-48.7191,-49.6330,-66.3521,-50.8944,-49.4120,-46.3791,-65.3622,-45.9625,-46.2102,-46.2197,-56.5950,-53.7635,-70.9110,-57.8057,-67.0694,-72.9847,-64.9075,-52.1498,-52.0728,-41.9076,-54.6486,-52.2068,-21.7693,-21.7162,-35.7584,-28.8850,-21.6831,-28.1433,-33.3987,-32.3277,-49.5529,-49.5645,-52.8546,-57.4780,-59.6369,-56.4169,-56.7335,-61.7398,-47.5374,-55.5666,-47.7619,-42.6092,-35.8792,-47.1819,-23.0720,-26.4364,-11.6605,-20.7372,-16.3226,-2.9282,-18.6606,-13.2129,-24.8545,-28.0650,-34.3924,-35.0327,-51.0081,-57.7599,-55.9777,-49.6971,-48.9598,-39.0735,-33.6266,-48.2636,-46.0099,-43.0537,-13.0937,-18.6460,-17.8288,-28.2067,-16.9442,-10.2657,-13.5475,-2.9398,2.2588,-26.3243,-34.3140,-34.1984,-17.9744,-24.3483,-37.7401,-41.6971,-48.8136,-38.2825,-46.1506,-44.1972,-35.5518,-37.7516,-34.3818,-26.7412,-14.3143,-3.5500,-8.0936,-7.1854,-15.2501,-19.5144,-11.0245,-17.1839,-31.9083,-27.2548,-27.1649,-30.5411,-18.7829,-26.9539,-25.9989,-38.3688,-46.0383,-56.2951,-51.5112,-52.1898,-61.1878,-53.1651,-46.1455,-35.8581,-31.8609,-35.9938,-27.2170,-32.4659,-50.5228,-31.1371,-17.5978,-35.4352,-22.7450,-13.4021,-32.4226,-33.4226,-43.1732,-25.8934,-38.8489,-40.9413,-33.6665,-42.0484,-56.5513,-56.2655,-47.8362,-55.8890,-64.0238,-46.5897,-47.5482,-21.0231,-26.5017,-33.8300,-32.2188,-38.0953,-27.5660,-5.9542,5.4091,-7.6386,-19.1106,-26.8174,-31.2285,-12.5727,-27.6429,-15.7660,-26.3311,-54.4561,-51.0571,-48.8129,-41.5263,-33.8371,-9.9885,-34.4067,-24.6570,-17.7405,-19.3449,-17.5993,-23.1965,-12.6949,-6.8994,-7.1523,-5.4231,-1.7711,-10.1985,-24.8535,-41.3251,-43.4746,-44.4341,-45.6623,-55.7546,-63.9848,-69.1893,-72.2463,-61.5317,-66.7867,-59.7521,-50.3181,-49.5430,-30.4652,-21.6020,-26.7427,-22.4086,-12.8955,-19.4083,-17.3802,-0.8914,-2.1496,-6.3072,-10.3166,-33.0479,-13.8040,-20.2818,-20.2143,-27.8922,-34.4701,-38.3728,-35.0329,-38.1255,-30.5249,-45.1038,-33.0168,-9.9990,-24.2703,-20.9262,-20.9319,-9.4415,-12.7950,-5.5861,3.7337,-4.5399,6.1945,8.0438,7.7728,1.9230,19.8629,0.3528,-14.0790,-27.5916,-23.5515,-11.0973,-8.1631,-11.2425,-20.3462,-36.2526,-25.9372,-36.1971,-34.6975,-16.4121,-7.5331,-1.2584,-2.4902,-4.4257,-17.2152,-15.5869,-28.7891,-33.4148,-15.2414,-24.4445,-15.2198,-16.8304,-33.2407,-30.8985,-44.2767,-55.0222,-41.1141,-42.3107,-37.3665,-18.6865,-38.4918,-24.3704,-26.5767,-8.6908,-6.8351,-4.5391,-11.2328,-6.2657,11.0979,19.4642,8.5931,-3.8545,4.9208,17.7083,-0.8312,0.6607,-19.3573,-19.5066,-16.7614,-21.1574,-31.1765,-29.6824,-12.1875,-4.5514,2.2054,6.1437,-4.7398,-5.9246,8.2815,4.7940,-8.1863,-7.7642,4.6687,1.7610,3.4137,10.5483,6.7713,3.2526,-24.9770,-15.6244,-16.7668,-36.8772,-34.6987,-34.7404,-25.1389,-8.9704,-5.1163,-23.8262,-13.5604,-8.7554,-6.0730,-1.7887,2.9916,16.7751,13.6965,-0.7509,12.5986,14.5731,9.5647,11.7022,0.6170,-5.8104,-14.5792,-35.3713,-27.3362,-33.7942,-37.7852,-19.6311,-25.7387,-31.8812,-35.4062,-27.1810,-20.4218,-30.8281,-22.3249,-14.3630,-30.3313,-14.9026,-11.6252,-6.1383,-4.4422,4.6944,18.9370,3.5599,6.9355,16.2714,-2.5810,8.2256,-5.7318,1.1066,-10.1155,-19.5668,-26.8579,-33.0059,-27.4379,-20.3509,-25.2695,-25.9372,-20.9911,-7.1352,-2.5059,-14.3658,-12.3454,-0.4100,10.7843,5.9640,-14.6239,-12.8040,-19.4395,-16.3724,-8.0287,-35.1396,-43.1668,-39.0471,-30.6703,-28.3614,-29.7680,-28.2829,-48.0685,-28.7088,-34.8380,-28.1277,-38.7493,-26.6056,-18.2863,-10.1667,-26.0444,-14.3756,-16.7678,-2.4406,3.5904,5.9838,-8.0762,-1.0051,-3.1531,-28.8345,-18.3789,-19.2289,-34.0795,-44.5422,-33.6001,-48.8672,-43.0130,-39.1033,-32.4988,-39.7093,-36.8953,-25.2742,-11.3568,-0.7479,-25.3672,-14.7976,-20.7187,-6.9815,-20.1872,-20.9837,-20.6700,-17.8220,-16.3516,-18.5067,-27.5124,-40.1895,-29.3114,-35.0599,-30.8907,-47.3970,-55.5558,-41.5014,-28.4294,-33.6912,-35.5116,-35.2596,-14.3842,-30.0723,-25.7486,-14.1300,-25.3340,-0.5131,-0.3264,0.6736,-4.3959,-14.8978,-25.5569,-23.5455,-30.3873,-21.5443,-18.8446,-16.8632,-27.2940,-28.2770,-39.9302,-42.8252,-36.2544,-40.3398,-35.3687,-41.9662,-36.4041,-19.2784,-13.4134,-22.6145,-9.6383,-14.2992,-7.8694,4.2083,-0.1495,-2.5541,-1.5676,-27.8554,-39.5592,-43.6297,-47.3183,-65.1127,-52.9262,-52.8611,-43.2859,-45.8394,-52.0991,-42.3584,-40.6756,-50.9433,-50.7313,-60.6318,-49.7134,-40.8596,-31.4695,-35.2886,-31.5984,-33.8032,-22.4613,-19.4925,-22.0015,-30.1213,-45.8573,-43.3185,-43.1643,-43.8991,-39.6598,-29.8561,-35.8932,-49.4912,-37.7331,-36.4960,-44.3743,-31.2123,-35.8595,-41.3688,-24.1829,-20.9318,-21.3891,-18.6622,-21.0374,-11.1353,-15.4432,-16.3052,-19.8027,-35.6784,-40.9541,-51.7598,-35.4846,-46.8143,-38.8034,-35.7007,-35.5165,-47.0818,-35.6249,-16.9804,-12.3313,-15.8611,-20.9207,-27.7603,-13.3021,-14.4349,-8.0386,-13.8803,-9.4045,-4.9499,-3.7264,-3.6524,-14.2887,-19.9845,1.5265,5.9831,-16.0837,-36.7489,-37.1784,-28.3538,-24.9907,-44.3466,-38.1006,-32.7173,-26.5252,-33.9626,-39.1406,-18.0137,-8.4583,-13.0709,-8.2082,-12.4412,-12.0429,3.7446,1.4037,1.7087,4.5825,-18.0440,-20.1469,-18.7274,-26.1947,-20.7877,-31.3150,-40.0443,-33.5619,-30.8055,-24.3430,-26.4360,-25.0558,-24.4468,-26.4300,-26.2155,-14.6807,-11.2369,8.4675,10.3261,5.2220,1.5862,-5.1990,-15.7194,-10.2007,-8.3561,-9.2493,-9.9679,268.2639,235.8892,217.8126,216.9808,196.5950,172.3987,160.4884,150.4038,143.3879,142.2117,149.8633,126.9221,118.7315,95.4969,98.5274,107.0267,91.5868,52.2422,83.6230,89.0226,56.1569,68.0147,33.0814,49.0774,35.3925,11.6459,26.3207,28.4877,17.8191,12.4482,-1.1923,-13.7302,5.0158,14.7075,6.5203,-19.6747,-18.8691,-12.5571,-13.7056,1.7727,6.7365,-3.6611,12.1488,10.5385,-1.1314,-4.8452,-20.7538,-12.7624,-11.2367,-12.4901,-14.0013,-18.6073,-24.9312,-22.4123,-18.6407,-27.0814,-25.5401,-28.8923,-30.0323,-19.6322,-22.7643,-13.5009,-12.6361,-13.3247,-11.9895,-13.0580,-18.4880,-2.4600,-0.2502,2.3526,-7.6372,4.1387,-16.7239,-28.0122,-33.9097,-38.5431,-14.1794,-13.1351,-21.2367,-31.0707,-12.4266,-24.6862,-21.3295,-4.5671,-3.6964,8.6593,-4.4000,-11.0335,-13.7944,-20.7588,-6.1330,7.5436,3.9367,-3.8469,-13.7907,-7.1668,-3.7438,-11.9413,-20.5214,-31.6198,-27.3511,-56.0605,-31.2948,-14.0591,-42.0712,-34.1625,-28.5032,-26.1344,-10.1952,-8.6025,-6.1146,2.2564,3.5816,26.5488,5.3965,-1.4955,-18.1620,-12.3091,-3.5146,-26.0247,-36.1643,-21.1363,-12.5199,-25.4437,-34.6866,-47.3677,-31.2874,-29.2683,-43.5541,-20.2643,-16.0886,-10.4175,-10.7943,-8.2192,-6.6566,-5.4425,-24.8169,-22.5650,-13.0069,-4.2471,2.5579,3.9279,8.9895,4.9056,-14.3573,-13.4352,-24.9789,-24.2777,-26.2040,-50.7849,-10.1080,-19.0311,-26.1675,-7.9480,-20.7648,-16.7811,-15.0033,4.1257,-2.5039,3.3539,15.5575,14.6738,13.0356,24.7752,34.9098,16.5750,9.1386,5.9446,7.5771,-12.1751,-19.1084,-33.6913,-35.0417,-30.4913,-24.6408,-10.8839,-20.1106,-31.8684,-27.5751,-7.7854,-5.0179,-11.0140,-10.8108,2.6168,-7.3337,6.7572,23.1699,8.0535,-1.7390,3.6774,-5.4201,-13.9891,-0.6672,-0.2821,-15.7050,-22.9671,-31.0630,-28.4309,-32.6201,-33.3713,-10.9637,-17.3818,-15.8387,-11.3594,-11.1548,-17.5127,-11.1252,-10.9561,-3.2788,-1.9367,-7.4010,-13.3754,-2.5719,-5.4747,-16.6771,0.8382,7.2329,13.8799,-12.8568,-23.3111,-31.7436,-25.8803,-28.8457,-38.6138,-37.7974,-48.2422,-27.2369,-34.3014,-28.3221,-33.2822,-22.3297,-12.1639,-2.4240,9.3663,22.1798,21.7958,25.4786,29.1055,20.8457,14.0219,18.4096,15.1842,4.4211,-17.2235,-18.0208,-14.1715,-7.0174,-11.1239,-2.0355,1.0651,0.8688,-1.0634,-16.5225,-6.3000,-11.4182,-15.0608,2.2697,21.5656,23.5500,36.8629,28.1080,41.4452,23.5663,15.2673,3.7573,16.2544,2.8502,-0.6487,12.0978,10.4702,5.9385,-8.0910,-8.2612,-6.5588,3.1394,12.0898,8.6200,22.5931,18.1342,13.0449,25.5410,37.7791,42.8471,36.4386,25.8521,22.6808,28.5665,34.6495,22.4053,16.2078,7.3651,-0.8027,-3.8928,-3.3561,4.0792,-12.5370,-15.3663,-21.1636,-7.8675,1.3087,4.5350,-4.1257,-1.4814,-3.7395,3.3229,4.8250,4.9210,7.4551,10.3658,5.5966,7.0963,22.1213,24.2178,-11.5179,-21.7533,-23.6223,-19.5409,-14.4430,-20.0051,-27.2020,-29.8482,-41.9263,-41.6338,-42.1341,-53.5406,-49.6448,-43.2965,-24.4939,-22.5862,-19.9042,-36.7441,-32.2787,-16.5375,-35.7394,-9.2554,-25.9112,-9.3922,-19.0434,-5.1276,4.7436,-38.5462,-28.3967,-47.1055,-35.6700,-39.6201,-39.8150,-45.7354,-34.5825,-45.4270,-24.8481,-32.0248,-33.6209,-6.7898,-9.6189,7.9786,5.0547,-9.5646,-4.9549,-0.8850,8.6240,-1.0677,-8.2170,-15.5632,-18.0991,-13.5897,-28.5970,-38.9336,-45.8708,-50.4706,-58.5067,-51.9213,-34.4204,-43.4894,-40.0166,-59.1461,-36.1186,-35.3667,-34.6799,-27.2377,-31.1148,-39.0711,-15.3957,-17.3948,-23.8303,-31.4219,-36.0190,-23.4128,-14.7913,-29.9412,-46.7072,-39.7589,-43.0595,-39.6318,-47.6935,-75.2598,-53.4070,-61.5124,-62.7539,-48.9530,-40.6034,-48.8130,-27.3179,-20.9968,-24.3162,-30.1642,-28.1664,-13.7786,-28.7929,-13.1275,-22.3394,-27.9410,-42.4934,-34.4425,-31.7738,-47.6016,-37.8362,-42.1643,-48.2386,-40.5752,-59.4034,-38.1132,-21.8176,-19.6812,-26.0963,-30.5294,-30.5060,-23.7543,-14.0303,-18.6081,-3.4329,7.6053,-10.7769,-25.4511,-26.8025,-12.9956,-18.8698,-17.0026,-29.8231,-25.8445,-37.1867,-45.9300,-46.8210,-50.1070,-27.2442,-38.9028,-35.3978,-42.8595,-44.6737,-33.5337,-19.5905,-27.2770,-26.4838,-14.2714,-5.8237,4.3317,-4.4507,-5.6653,-10.5499,-30.2711,-35.7140,-41.2683,-44.4996,-31.7294,-36.7211,-44.9505,-63.5922,-33.8771,-49.8036,-33.8518,-58.0585,-57.7776,-63.0654,-42.3316,-46.3405,-42.8054,-36.6549,-14.2498,-6.4003,2.1578,-14.9742,-13.0882,-24.5081,-20.2922,-20.8861,-14.4981,-11.3216,-16.1701,-32.4310,-24.3782,-33.9955,-39.5782,-42.9807,-38.4749,-18.8963,-24.8305,-24.0158,-20.7593,2.9877,-2.3901,-17.1480,-13.9657,-11.0848,-7.4698,-11.6615,-2.6193,2.2827,-21.2138,-24.6778,-21.6659,-19.7888,-3.4709,-11.8886,-18.7884,-32.5518,-38.4778,-46.6040,-29.9765,-27.4520,-21.1970,-29.9141,-28.3380,-22.0541,-15.5337,-28.2153,-11.4990,-14.1595,-22.4936,-27.2700,-8.7614,8.3393,10.7217,0.4110,5.7997,-12.7937,-14.6539,-31.3592,-39.4226,-46.7712,-57.4497,-35.6956,-48.0188,-50.6732,-49.9768,-36.5601,-15.0072,-10.6630,-35.9078,-27.1958,-25.7679,-7.6121,-9.2862,-14.8191,-9.7362,-10.9671,2.8040,-6.1725,-13.9122,-41.6579,-26.0736,-10.6109,-22.1868,-51.0240,-46.7440,-51.2172,-31.4096,-41.6518,-50.9392,-47.9777,-64.7386,-50.5020,-34.5117,-24.8456,-39.9997,-24.8287,-10.9920,-24.1838,-11.1142,-7.7319,2.9551,-12.6396,-16.5367,-14.6508,-34.1587,-31.6022,-35.0290,-33.9180,-27.7831,-31.6483,-42.0799,-34.6783,-24.5065,-38.8144,-31.7364,-30.2229,-27.6181,-32.2684,-7.4792,-15.4686,-1.6891,-9.9612,-7.8217,8.0446,7.1127,-0.3756,-1.2205,-12.5939,-16.4233,-23.4525,-16.8086,-28.4989,-17.2855,-30.9556,-30.7774,-25.7300,-30.7180,-32.2418,-27.1150,-18.0154,-25.1663,-18.3017,-11.3304,-1.2693,-2.7972,11.0625,-2.6041,-6.6199,-9.5380,-20.6598,-21.0213,-16.7338,-5.9023,-15.9112,-20.9909,-9.6066,-7.9946,-14.7035,-33.5339,-31.4725,-14.0618,-23.4516,-26.2328,-16.3470,-12.0573,-20.8903,-13.0978,-6.9215,-20.2526,-13.4586,-20.5584,-19.8804,-15.2719,-8.1117,-15.4242,-20.6463,-19.4300,-29.2445,-19.7228,-16.2396,-28.0072,-32.0156,-31.2383,-46.4409,-23.6455,-0.9385,-20.9559,-20.1084,-9.1036,1.5297,-3.0616,-22.7601,0.5705,19.5921,4.6785,-10.9289,-5.0787,-15.6859,-2.4685,-19.6911,-18.8007,-28.6982,-29.0581,-17.8639,-31.9843,-43.6535,-53.2695,-60.2194,-53.5148,-37.8852,-27.1548,-32.0288,-15.1754,-26.7713,-21.9695,-21.3264,-0.3222,10.1844,-15.8544,-5.5859,6.6183,-10.8667,2.7686,7.7937,-1.9416,-0.7405,5.8552,1.6039,-20.1668,-31.6743,-37.2298,-27.3123,-43.5181,-35.8586,-29.9197,-29.7331,-17.2082,3.3579,-12.2391,-12.6995,0.5228,-0.7974,7.1581,-3.4277,-12.6320,-28.3635,-32.0712,-33.3905,-19.5796,-29.9849,-14.6331,-24.7074,-32.0508,-38.2508,-30.7073,-41.1689,-41.1859,-22.8175,-25.1734,-26.2991,-16.9769,-16.2685,-10.5878,-11.6101,12.0308,0.4501,15.9149,7.5782,14.4300,15.2563,14.9314,-0.6499,10.0375,11.8867,-8.9143,-14.4530,-23.0785,-23.8106,-12.7207,-33.8495,-33.7101,-13.4094,-15.4919,-5.9421,-23.1243,-20.9238,-23.8408,-17.6790,-26.1994,-5.6407,-3.5532,-5.5160,-8.2823,-10.9028,-0.7725,-13.0186,-1.4432,9.3685,-1.3391,-29.9452,-29.6613,-25.6305,-33.0828,-43.7878,-31.7572,-29.9860,-16.0526,-28.4107,-20.6578,-36.1267,-32.0967,-13.7706,-7.9822,-20.1304,-13.9968,-21.1789,-10.7610,-2.2168,-12.0622,-14.5634,-23.2246,-20.3300,-5.5745,-21.6194,-35.8117,-36.6721,-48.0483,-42.6534,-23.7468,-29.5747,-15.3516,-27.6304,-26.9742,-22.6365,-41.7521,-17.4102,-9.1846,7.4680,6.7533,-5.6079,11.0469,1.4120,-3.9089,3.6697,2.9056,13.9689,4.1850,0.0944,3.1364,2.4952,-1.5586,0.0160,-8.1217,-12.5249,-5.8532,-13.9532,-10.1395,6.2986,8.6131,-2.0235,-2.3800,14.4304,12.8213,8.8094,4.1369,7.7204,3.8391,-2.4874,1.3132,0.2538,-5.8546,1.1493,1.6952,-5.7670,-19.2790,-16.8862,-25.3677,-35.5176,-21.4010,-18.8801,1.2532,-4.2375,-11.1747,-15.5994,-18.2717,-28.2182,-33.8826,-25.8130,-19.3731,-32.2158,-20.9794,-16.8219,-17.2168,-21.3878,-18.9547,-5.8757,-17.1672,-31.8485,-33.5843,-37.0893,-45.2998,-45.3313,-32.7427,-42.0204,-45.9646,-35.1791,-30.8279,-39.7991,-18.9605,-2.8241,3.6434,22.2286,20.4557,24.1524,32.4122,13.9901,3.4523,2.0194,-14.6927,-17.8691,-28.0435,-27.2148,-39.5001,-44.2272,-39.8788,-48.0949,-64.1967,-61.7330,-55.8796,-47.3002,-30.7833,-23.5756,-11.1437,-7.0070,-0.9627,-1.3861,-1.9637,5.6778,4.0579,-1.7033,-2.5370,-32.4308,-23.5368,-23.4262,-14.9150,-17.5296,-43.3022,-31.5387,-53.4618,-58.1401,-52.2459,-53.0353,-58.4567,-38.9755,-32.2078,-27.3606,-35.1181,-30.9703,-26.5035,-16.2254,-47.6625,-35.9118,-26.8009,-33.4806,-28.2658,-28.2464,-33.5741,-30.4652,-29.5779,-39.9397,-46.4025,-47.7797,-50.8877,-63.5338,-48.6852,-50.2834,-36.2605,-37.0116,-33.7278,-47.9522,-43.6957,-45.6613,-35.9916,-15.4458,-11.6783,-30.5042,-27.5687,-24.3513,-23.2445,-43.9522,-46.2052,-34.9337,-53.2437,-45.3404,-40.5837,-40.2603,-46.0357,-48.2088,-39.6531,-43.3518,-48.9398,-41.2158,-32.3739,-18.2180,-20.2211,-17.0886,-28.9491,-27.9339,-23.2019,-20.7672,-23.1441,-5.1726,-7.3224,-17.8905,-15.1687,-21.2615,-24.9073,-44.7305,-42.1911,-44.0601,-44.2227,-58.9822,-75.8859,-65.0329,-52.7100,-44.8806,-28.8803,-32.5933,-34.4910,-31.3915,-21.3417,-30.3060,-26.9728,-29.1016,-9.7338,-15.9701,-26.2474,-24.0057,-22.3683,-31.7510,-39.2889,-43.8778,-41.2984,-50.0257,-56.1012,-64.2751,-55.4871,-56.0127,-55.5912,-48.7444,-41.2749,-38.5537,-38.3815,-43.1930,-45.0498,-46.3036,-39.9771,-33.0456,-36.3892,-30.6194,-39.0721,-43.8542,-27.5498,-37.6649,-44.5165,-47.6533,-37.1788,-32.1108,-47.7461,-49.1846,-43.2494,-61.5937,-34.0527,-31.7694,-69.3748,-53.4022,-52.5390,-45.8169,-40.8932,-28.3256,-31.8758,-35.8646,-28.3753,-22.8012,-35.6591,-37.3750,-12.4560,-30.8013,-32.2439,-35.6018,-30.4995,-25.0693,-40.5850,-63.2241,-67.1188,-60.6608,-59.9427,-66.7434,-46.4710,-51.7034,-27.8599,-20.4537,-32.6121,-28.4272,-36.8936,-23.0438,-28.9268,-32.8909,-26.3461,-26.5803,-24.3376,-17.1309,-28.9782,-17.0681,-39.4016,-26.1042,-46.7607,-45.2419,-49.6655,-48.3700,-37.6926,-30.5252,-33.3197,-45.4414,-42.8222,-48.8104,-49.2264,-46.6432,-36.6894,-28.7135,-39.4408,-21.7870,-5.9438,-9.1380,-26.0961,-35.3317,-27.5085,-46.5300,-25.9665,-33.1382,-24.9711,-51.2302,-37.8215,-45.0449,-49.6808,-54.7596,-37.3802,-29.7517,-18.2035,-22.2170,-33.8224,-36.2286,-32.6412,-8.2056,-16.5715,0.9969,-3.0166,-6.4516,-11.9982,-8.0439,-15.6901,-21.7515,-18.3815,-28.6806,-36.9161,-30.2126,-35.9449,-34.7951,-42.8490,-45.5788,-20.6918,-17.1151,-21.3018,-29.3375,-25.2525,-9.8570,-18.4249,-15.9416,4.9251,-3.7454,6.3556,-15.2532,-2.9278,6.7594,-12.0993,-22.4069,-32.6706,-22.6102,-38.5973,-40.0521,-48.0454,-29.5645,-32.5939,-45.2349,-53.4883,-35.7893,-48.5989,-56.3084,-59.0063,-48.2153,-47.7962,-35.4111,-19.8394,-22.7780,-16.2780,-21.5826,-13.6044,-1.1002,-18.5011,-20.2774,-35.1947,-18.1191,-32.3198,-26.6381,-36.5840,-34.5511,-36.4789,-45.0643,-36.2859,-47.3082,-36.9220,-41.7378,-35.5068,-37.7185,-32.6616,-36.3815,-24.2523,-22.3959,-25.0725,-20.6316,-19.6326,-25.5905,-24.6388,-29.1956,-7.2665,-18.7793,-31.3717,-35.0501,-66.4743,-76.6980,-63.4088,-67.4116,-56.9994,-48.5874,-41.3950,-51.5604,-37.8325,-34.1376,-28.0762,-27.6831,-10.9262,-15.5346,-3.1575,-19.7100,-12.1762,-19.3388,-24.7668,-22.9304,-37.0515,-61.6957,-65.4461,-32.3318,-28.1502,-26.6193,-44.8609,-58.2261,-52.4219,-47.2675,-48.4609,-23.3446,-13.7837,-24.6179,-29.0446,-34.2580,-11.6807,-18.5659,-20.7610,-15.8882,-23.3425,-21.5101,-32.2927,-17.2845,-25.6643,-22.5179,-36.7844,-44.1883,-55.2746,-46.4882,-59.8715,-60.0865,-56.5801,-56.9935,-68.3665,-54.9054,-42.8592,-47.2326,-43.0264,-36.7248,-36.2204,-39.8583,-29.4686,-21.2389,-35.6236,-34.3025,-40.6813,-26.5814,-36.2905,-46.7097,-45.9759,-59.9660,-64.0109,-69.2877,-64.8020,-47.1383,-59.0442,-51.7778,-57.0467,-44.6864,-51.7906,-40.1019,-30.7889,-9.4961,-17.6913,-25.1896,-13.1318,-4.0481,-32.7080,-31.5737,-28.3466,-31.4823,-34.7162,-42.7785,-28.5287,-50.4262,-45.7769,-39.2010,-50.8664,-62.7103,-66.9446,-58.8119,-58.9608,-50.3854,-55.6656,-35.4734,-33.3937,-27.5109,-15.5642,-26.7994,-28.7427,-25.6397,-21.5147,-20.8164,-28.1495,-37.1681,-25.6397,-16.3860,-15.6119,-6.6386,-1.6972,-11.3259,-9.9310,-14.7087,-8.8571,-8.8033,-17.1542,-21.8314,-29.1343,-28.0843,-27.1326,-18.7723,-24.9723,-21.2410,-29.9611,2.1124,-5.0389,1.5896,9.6958,1.7591,4.8561,-14.5001,6.7151,-5.2127,-17.7206,-17.0162,-40.7865,-38.4880,-29.9563,-52.9086,-36.8600,-31.7242,-22.5465,-44.3027,-23.4804,-35.7631,-36.3380,-40.1526,-36.0648,-23.1757,-30.1448,-17.8643,-28.2233,-34.6500,-30.4669,-25.5613,-31.5539,-32.0216,-29.6566,-31.6862,-47.5485,-57.8156,-52.4071,-52.3837,-67.7662,-64.8812,-60.6005,-54.1402,-53.1093,-41.1342,-54.5194,-51.8748,-37.9328,-33.1915,-39.1915,-31.0881,-26.6781,-24.6406,-20.6349,-24.8918,-11.2288,-20.8010,-34.0604,-30.9459,-30.7174,-25.4122,-38.0223,-29.6829,-31.3392,-19.1492,-18.3474,-25.7920,-27.0995,-18.9661,-18.0772,-2.4526,-11.5225,-15.6589,-16.3689,-19.7078,-7.1786,-14.4469,-3.9514,-21.4033,-13.8233,-10.2413,-33.7737,-8.9571,-25.5429,-24.6897,-21.1530,-19.9614,-21.4455,-14.7085,-13.6737,-2.1936,-6.0934,6.1319,-0.9373,-16.0125,15.9034,0.0542,13.3307,5.6490,9.7221,-2.9018,2.5739,-3.5435,5.1021,-6.2196,-12.4356,-39.6739,-30.2407,-27.1976,-29.8181,-27.0728,-37.9876,-35.4592,-29.4759,-51.4908,-30.6595,-31.7105,-31.1609,-15.5070,-2.5449,-0.4213,-6.5716,1.1862,0.5301,-9.5037,-17.9740,-19.8063,-12.8306,-23.6916,-37.8432,-45.3180,-30.3942,-40.0825,-35.5249,-31.6029,-50.6694,-42.9899,-40.5486,-32.7599,-24.7303,-38.6698,-21.7431,-13.3099,-18.6978,-15.5963,-8.3852,-6.1886,-3.5421,-5.4356,-17.0574,-5.2991,-6.6829,-21.0550,-39.6005,-35.5334,-37.9954,-51.7948,-51.2094,-58.7604,-45.0666,-48.2122,-59.8039,-43.9273,-41.4754,-34.9417,-38.5417,-39.1372,-34.8911,-28.0384,-18.8596,-14.0833,-13.9992,-14.1139,-9.6708,9.8648,-13.9681,-13.8690,10.8932,-14.2275,-33.7918,-23.9641,-36.7707,-26.9324,-34.6511,-34.8041,-18.0001,-21.5256,-17.3615,-19.1772,-22.1318,-9.7587,-0.6600,-2.9575,10.9264,5.6868,-0.6385,-2.5913,-7.2222,-19.8500,-14.5103,-14.4431,-21.4764,-19.7206,-23.9391,-21.8983,-25.7955,-34.4364,-45.8282,-25.2653,-37.2433,-38.0018,-37.6987,-33.4052,-13.1263,-9.2615,-14.1981,-16.3720,-9.7707,-12.2779,-13.6333,-10.5982,-16.2901,-13.3534,-15.1856,-17.0824,-29.6015,-27.2285,-43.6889,-47.5132,-51.1720,-56.1244,-43.6568,-57.6787,-55.0733,-39.8624,-49.8364,-46.4648,-46.6029,-27.9967,-21.3055,-18.5763,-18.1665,-21.1351,-25.5767,-25.7699,-10.1599,-15.3793,-30.0721,-30.4920,-38.2846,-48.9767,-45.2581,-54.3773,-64.5532,-72.9292,-74.8537,-65.2068,-61.1745,-63.1783,-49.4816,-49.5640,-42.4294,-45.0213,-46.0435,-37.1568,-41.2429,-26.0018,-30.4209,-16.0312,-21.3751,-13.9575,-30.3214,-29.1218,-20.6664,-14.4887,265.7988,235.2706,225.7058,192.8761,181.1803,150.8489,141.5585,109.7702,108.3649,113.2899,97.0354,105.0958,104.8777,89.3665,80.4700,79.7089,73.8752,77.5658,76.2524,71.3536,79.0500,58.0604,62.7563,39.6188,39.9591,43.1598,35.3632,17.4230,17.3462,11.6018,1.7345,9.3094,17.8148,7.1353,5.6456,3.6860,-11.2488,1.2592,-6.2665,0.4125,21.8033,5.1063,-0.2709,10.0710,-6.7645,-6.5479,2.2628,-12.0388,-28.5173,-18.8665,-25.9047,-17.0017,-33.3161,-24.5722,-22.3581,-44.1770,-42.2885,-38.4566,-45.4451,-36.2047,-36.3147,-33.7172,-28.4332,-25.4794,-23.8091,-28.8571,-28.6981,-25.6689,-26.6007,-31.5815,-31.7125,-50.8808,-47.6123,-46.5904,-50.6785,-35.8018,-48.7041,-52.8747,-59.9366,-59.8967,-68.0787,-61.0032,-63.1946,-57.7324,-68.4810,-50.0454,-20.8706,-15.8412,-7.2391,-4.1960,-9.8581,-20.3234,-24.0186,-8.8888,-13.5236,-0.4731,-21.5916,-12.5712,-30.3633,-25.8140,-29.7838,-56.1999,-60.2848,-66.7821,-67.1787,-51.5684,-53.8024,-49.1292,-44.0122,-55.5621,-30.4915,-35.0948,-26.1498,-21.5877,-16.8170,-31.0238,-48.5246,-35.5110,-36.0629,-47.7805,-43.8730,-51.7618,-61.7354,-51.4265,-61.6881,-63.6900,-63.0644,-51.1318,-58.7804,-58.3984,-59.0632,-48.3513,-37.5335,-39.3222,-37.9241,-39.6978,-54.6623,-51.8175,-46.6029,-51.1077,-56.4164,-64.1055,-61.0228,-52.9777,-52.9262,-59.7783,-56.6205,-60.7375,-52.9162,-63.0907,-60.7342,-67.8654,-81.2779,-73.8726,-78.9592,-69.1217,-68.0292,-57.2589,-63.4386,-49.0145,-38.1816,-33.2900,-42.9076,-37.0495,-33.3488,-26.6141,-50.7879,-48.8418,-26.1074,-54.2222,-75.1312,-74.2819,-91.0849,-71.1170,-66.5740,-80.3121,-77.7939,-69.2080,-87.7609,-83.8374,-71.8572,-70.0212,-62.9411,-63.3783,-47.7774,-43.5746,-35.2031,-35.0202,-36.2740,-47.4876,-35.2661,-40.7494,-40.7015,-34.7926,-48.0988,-36.4908,-38.4442,-50.3217,-70.2816,-81.0981,-58.0953,-62.6080,-66.8976,-52.4691,-63.5621,-57.8274,-47.4775,-53.9951,-41.6199,-27.5166,-28.8424,-20.1876,-22.0927,-36.1143,-57.9345,-51.6941,-40.6826,-58.3009,-52.7384,-47.6308,-43.1549,-61.4295,-66.3492,-62.8791,-60.1183,-61.9443,-53.6349,-64.2006,-55.6631,-49.4016,-50.4319,-37.9578,-37.7386,-31.0231,-33.0292,-32.4447,-40.1305,-39.9723,-27.4547,-35.2046,-52.3730,-52.3382,-74.4218,-65.1768,-56.0458,-66.8732,-73.0933,-97.7481,-79.9815,-70.2569,-66.2255,-61.7425,-69.2579,-69.9744,-76.2553,-67.2822,-71.9652,-73.1196,-60.7426,-37.5471,-46.5805,-45.1903,-53.4218,-63.9818,-49.7533,-73.1031,-66.1569,-63.5628,-65.6267,-77.7731,-89.8138,-84.1917,-82.7837,-79.5693,-65.5784,-76.1867,-62.5237,-56.5700,-46.8783,-49.3929,-40.6331,-44.0729,-40.4115,-54.7014,-60.4776,-35.1337,-29.3338,-29.0478,-35.2617,-24.0623,-38.8122,-36.5988,-36.3183,-33.3019,-52.4329,-61.1731,-66.2489,-43.4135,-47.2301,-43.4715,-23.5852,-44.0780,-57.9228,-50.1774,-52.0108,-44.9929,-41.0007,-39.7766,-39.8259,-15.5917,-21.7481,-26.1986,-20.2633,-23.9820,-28.2534,-29.3349,-36.4818,-36.6686,-39.7240,-48.1538,-52.6498,-43.2183,-57.7105,-53.5322,-53.4338,-61.0130,-61.4362,-55.7334,-54.0061,-57.0135,-46.0656,-32.9147,-21.9177,-28.7899,-51.3206,-30.6352,-36.6691,-31.9144,-37.0799,-41.7374,-43.9041,-44.3316,-37.1462,-47.5728,-42.6452,-44.9622,-51.5668,-68.9065,-49.3711,-55.9591,-47.4712,-56.6592,-53.0061,-26.8623,-41.1406,-25.8174,-31.1454,-36.0496,-35.7419,-45.5174,-39.4286,-47.7528,-44.3563,-36.5548,-45.7658,-61.3658,-48.8460,-56.4470,-62.4487,-54.8553,-62.2164,-67.0205,-44.3753,-53.7941,-53.9325,-51.9052,-38.4343,-48.0516,-53.4035,-41.3151,-21.0346,-20.9828,-27.1971,-16.5213,-23.0868,-35.2186,-39.4485,-41.4331,-54.3672,-53.4980,-57.0311,-74.8144,-67.9529,-67.5953,-61.0158,-80.5600,-70.3300,-64.6046,-49.8211,-49.6033,-33.0869,-38.0820,-44.7033,-39.4299,-41.0223,246.2086,214.3646,201.3414,197.0529,184.6644,145.2483,151.1323,123.4431,89.8967,65.9533,65.8513,69.7534,63.2297,59.7991,43.3859,32.7553,34.0238,35.9706,35.3070,28.0736,37.8951,26.6091,22.9090,26.7121,38.1037,28.7201,22.9924,34.1052,39.6630,21.1106,19.8572,9.1036,-12.5628,-19.3902,-35.9010,-35.6727,-42.7655,-45.5764,-49.9051,-47.1050,-41.2575,-47.5015,-60.0060,-51.5622,-51.0889,-33.3573,-25.7503,-25.6635,-31.4190,-24.1894,-29.2364,-33.4015,-19.8604,-18.9721,-22.7718,-37.5469,-31.9769,-47.7068,-47.3050,-60.4777,-66.2491,-84.0148,-69.7220,-63.8518,-63.2839,-47.4414,-65.5967,-61.3554,-59.0615,-50.3875,-32.2233,-26.1005,-41.0374,-42.8612,-42.9797,-24.0965,-25.8882,-40.6686,-56.3225,-59.7305,-51.2956,-52.8589,-74.3040,-63.0915,-48.8882,-60.6799,-50.9162,-58.8370,-73.2679,-68.1629,-64.9929,-68.2650,-62.4958,-40.9401,-51.8760,-36.2705,-43.4514,-39.7985,-35.8569,-44.4959,-41.6717,-62.0091,-52.2377,-73.6057,-60.7733,-53.2299,-60.0529,-79.4718,-83.6999,-81.0887,-76.7765,-90.7114,-74.5800,-67.3971,-67.3314,-58.2867,-57.3450,-61.9640,-68.0657,-50.1294,-51.6417,-44.4510,-31.0776,-22.3645,-32.3411,-33.0360,-48.8871,-40.5463,-42.5511,-37.6855,-53.3185,-54.9402,-48.0920,-59.1795,-65.8257,-42.1223,-65.8644,-60.0869,-53.8429,-51.9427,-52.5193,-49.5306,-46.8949,-46.4873,-20.3109,-32.7433,-29.0492,-36.5652,-39.7508,-44.2175,-54.1843,-47.2216,-48.9667,-42.6852,-62.8700,-64.2119,-66.1044,-51.8591,-67.1731,-58.4070,-55.1912,-64.8757,-74.6764,-71.0386,-51.5719,-59.6823,-44.0972,-39.8915,-34.6023,-32.7316,-42.6419,-42.3876,-30.7881,-43.0385,-59.0338,-36.8867,-45.9547,-35.5711,-29.4682,-40.4351,-37.1974,-43.7676,-37.8788,-57.4821,-50.8617,-43.5191,-45.2527,-32.9285,-36.8368,-13.8992,-8.9134,-20.7660,-18.6141,-15.4857,-33.9276,-35.0318,-16.3417,-23.8660,-31.6701,-36.9052,-57.4092,-46.1064,-48.7955,-37.9583,-38.3125,-44.5784,-50.8856,-65.4926,-50.5110,-46.1625,-38.8407,-34.2087,-61.4042,-53.7325,-51.6180,-41.5190,-38.8340,-37.4060,-28.8031,-44.5522,-47.1974,-47.5588,-44.5734,-51.2094,-44.7812,-47.3497,-53.0277,-43.8600,-51.0265,-47.1038,-58.4119,-60.8347,-65.1682,-60.0280,-53.4316,-58.3668,-50.7736,-55.3245,-41.9063,-45.4298,-32.9163,-33.8312,-25.1859,-45.8666,228.0921,216.2055,194.3609,180.1613,180.3178,161.8892,142.6979,128.4741,115.6347,118.3023,89.3808,74.5256,81.5912,71.5973,80.4281,58.9244,62.8760,60.4412,43.9880,38.8407,46.9858,41.3405,21.4726,15.9496,4.5927,23.5549,15.8779,8.8693,-8.4257,-10.3924,-9.9961,-14.2286,-11.2975,-8.6241,-1.1934,-21.3444,-21.8581,-41.6402,-52.1419,-44.7992,-51.0524,-38.1237,-40.8024,-43.4800,-13.7832,-25.8701,-31.3805,-11.7035,-18.6491,-7.2906,-20.3413,-21.2064,-15.5545,-15.1470,-17.6870,-27.7797,-27.8780,-30.6453,-39.4717,-47.7053,-58.6734,-44.9352,-47.1068,-47.8196,-35.2114,-48.8343,-25.6965,-32.5031,-29.8999,-34.3626,-41.4864,-27.8243,-20.4912,-18.0982,-27.8158,-45.7340,-40.2711,-15.7572,-36.4375,-24.9476,-43.5966,-42.1984,-38.4859,-47.9850,-32.2505,-41.3829,-39.6023,-42.1325,-31.5997,-21.7025,-29.0172,-15.3150,-27.8618,-17.4169,-17.8844,-28.0816,-18.7758,-19.8303,-25.8985,-18.5753,-21.1646,-26.1198,-30.3669,-34.7987,-39.8601,-40.2279,-45.1378,-26.7170,-56.7306,-55.6055,-50.9582,-32.7666,-52.3828,-39.1773,-34.5461,-29.1922,-18.0135,-16.7629,-27.9577,-26.5224,-39.9964,-27.8685,-32.7506,-31.9401,-42.8062,-32.4788,-47.5571,-39.0969,-49.4779,-47.1649,-31.6343,-34.0466,-30.0885,-29.7090,-46.1378,-33.7524,-51.7183,-36.4627,-40.9629,-39.7396,-22.2110,-13.1466,-9.4993,-12.3131,-11.2903,-7.5977,-8.7012,-8.8964,-13.4124,-15.3595,-37.3592,-33.6666,-43.8588,-33.6006,-26.0067,-44.1363,-44.1910,-44.3578,-66.3922,-56.4251,-49.7123,-69.2350,-49.6589,-24.5171,-17.0982,-15.7862,-8.5940,-9.5075,-5.9049,-10.1826,-7.0836,-9.5800,5.1605,7.6459,1.8173,-17.3414,-25.5597,-13.1627,-20.5805,-27.5947,-37.1966,-32.8980,-41.6890,-26.9845,-16.4010,-12.1697,-18.8709,-32.0097,-15.9394,2.1540,-14.8562,-6.1283,8.8150,7.7210,18.4755,-7.2662,-13.1048,-1.3867,-20.4308,-17.7061,-17.1669,-11.3687,-16.4044,-21.2488,-28.0813,-14.1440,5.0679,-21.4239,-33.5592,-45.9795,-41.1664,-34.5723,-31.9755,-21.4631,-3.1447,-4.1218,-15.6023,-22.4464,-5.2607,-16.5021,-30.8982,-15.8509,-18.3547,-48.0141,-42.1253,-37.4957,-34.5803,-47.0899,-52.0822,-43.2994,-51.5768,-47.0160,-58.7418,-57.9835,-38.2941,-35.2932,-27.6823,-34.9397,-32.3126,-14.3653,-28.3120,-6.1349,-1.8038,-7.6950,-22.9105,-28.2632,-28.0473,-38.6748,-38.0757,-27.2270,-29.5975,-43.2470,-33.0243,-32.6484,-25.9249,-31.9200,-29.8582,-33.3099,-31.8170,233.2895,226.5307,216.5156,205.2865,201.1527,193.3096,180.9332,165.1231,151.2138,153.2301,135.7853,112.4225,103.5275,82.0516,83.7497,73.5927,63.6215,69.4430,44.5317,51.6228,58.0624,43.2340,25.9444,10.4868,5.0873,10.6619,9.3619,10.0671,14.4242,17.9686,21.1888,8.1223,10.4310,14.1031,14.5391,25.8954,8.6276,-10.9085,-2.1408,-4.8721,-16.2053,-26.7334,-10.8127,-30.8954,-22.0579,-23.7364,-19.7041,-10.8255,-19.4855,-27.0025,-15.9779,-26.2142,-22.2699,-31.3906,-28.4760,-17.8188,-15.8267,-29.7018,-16.6682,-24.4192,-13.6415,-29.0817,-40.0714,-36.3911,-44.5057,-32.7285,-44.0046,-49.0304,-47.6450,-61.7361,-64.2993,-51.5703,-59.1945,-55.0828,-35.7654,-34.0212,-43.7541,-36.6159,-31.1676,-7.3848,-10.9678,-21.5018,-18.5205,-34.4373,-32.5561,-27.7514,-27.6227,-34.6129,-36.4282,-41.4983,-47.1624,-51.1523,-53.0956,-48.2331,233.9569,215.9193,191.9182,182.6853,186.2659,186.9868,169.0911,155.9740,150.7061,135.6936,145.1209,129.7181,113.6147,107.4726,97.9757,101.4592,81.9526,73.5174,65.8074,46.9706,44.2512,36.1191,17.1975,24.7763,21.4108,20.8452,19.9306,22.8212,29.6357,12.8307,19.8104,31.2358,33.4551,37.5684,53.8563,37.9556,34.4734,17.8971,6.3576,7.2402,10.8500,4.2571,-2.4548,-13.2605,-19.9308,-21.6802,-17.1990,-19.6904,-33.9308,-23.7977,-31.1578,-22.5079,-22.0825,-8.1124,-18.8424,-13.6472,-9.4191,-18.7710,-13.3367,-14.0162,-16.2932,-15.2394,-6.3530,-20.1861,-16.9590,-24.4889,-41.4433,-34.7547,-50.0596,-40.3506,-49.2297,-49.2789,-57.9068,-46.3565,-38.4265,-48.5966,-44.5375,-32.0354,-29.4068,-43.2379,-7.8069,-11.3689,-10.3938,-18.0375,-29.9398,-13.1219,-19.7994,-14.5420,-21.0303,-22.0880,-30.4262,-22.6131,-34.6883,-10.2386,-8.2656,-15.3568,-22.3877,-34.6682,-28.6854,-39.1410,-47.5549,-23.2031,-22.8660,-32.5655,-41.6001,-38.2092,-43.1179,-23.9476,-38.9603,-28.3681,-37.3781,-43.4705,-33.7887,-38.6833,-36.2889,-56.2362,-60.4651,-75.2045,-71.4009,-37.8871,-32.3197,-47.9831,-56.0300,-49.9170,-38.7408,-44.3954,-36.6098,-34.8017,-35.9546,-31.8483,-23.4445,-28.5558,-17.3389,-21.3871,-15.9947,-8.2680,-20.9764,-20.8097,-43.9830,-39.5686,-35.3217,-26.6147,-55.8949,-45.2553,-33.8256,-49.1935,-44.6505,-37.2169,-32.5960,-18.9982,-22.1090,-15.4313,-26.3644,-28.9362,-24.2797,-27.7444,-14.9304,-19.8128,-21.8161,-15.4751,-26.7744,-16.5588,-25.1899,-17.9993,-30.6415,-27.7417,-32.6576,-31.9495,-40.0593,-52.6382,-33.3446,-36.2463,-27.9128,-26.3700,-35.1281,-32.0284,-16.0964,-15.9053,-3.8459,-6.6833,3.2859,0.5920,-2.0398,-7.8159,-4.4079,0.2534,-11.1548,-11.6771,-18.1352,-19.3478,-9.8940,-16.5686,-28.8192,-32.0450,-39.3740,-34.4898,-27.1231,-19.2564,-17.9719,-27.1585,-9.7158,-12.7393,-14.2279,7.4738,12.5665,5.1248,7.5976,7.6826,9.4050,-1.1948,-19.2164,-0.8363,-11.9661,-31.7467,-40.9277,-34.0458,-40.5733,-38.0006,-36.5191,-47.5855,-50.9204,-38.6857,-40.8937,-34.5895,-40.5653,-28.2441,-15.5891,-14.0616,-23.6714,-25.6121,-15.0227,-9.4122,-11.7459,-20.1953,-16.1953,-10.8552,-25.9303,-44.1735,-33.0180,-22.9093,-48.3973,-43.1450,-43.4812,-39.8004,-35.0590,-25.5878,-28.5807,-18.8737,-26.4722,-27.7955,-28.7098,-32.3415,-10.8518,6.9864,-2.1825,-3.6224,-13.4081,-13.7713,-4.8638,0.6940,-7.9032,-21.0247,-34.6928,-41.9733,-55.9383,-66.2040,-65.2969,-56.4210,-58.3006,-64.7629,-52.2725,-50.5947,-53.1105,-43.4502,-38.6535,-36.1173,-24.8201,-44.2928,-44.4598,-27.3057,-23.6211,-22.5489,-31.8939,-37.0514,-32.5590,-34.6908,-22.5644,-36.3600,-34.4036,-17.2894,-35.2911,-31.5480,-28.8232,-26.6814,-27.6559,-25.9609,-23.6062,-23.4793,-10.2193,7.8577,5.0864,-1.2966,0.1299,-13.2466,-10.0297,-0.9854,-0.2416,-20.5949,-21.2164,-5.2923,-20.8740,-14.9884,-30.0697,-35.4925,-40.8108,-32.4698,-30.7874,-48.4845,-42.9053,-30.9977,-35.3084,-34.5241,-19.8816,-17.2717,-28.0762,-26.3280,-37.5402,-36.9103,-30.4155,-34.2039,-45.6924,-49.7510,-55.3894,-51.2523,-72.4520,-72.1700,-77.8345,-63.7375,-76.0533,-60.3362,-43.2619,-43.2881,-67.1422,-53.5293,-58.6708,-56.2213,-41.5344,-26.0005,-27.9548,-36.2743,-29.4164,-50.4155,-42.3296,-40.9908,-35.2321,-38.0153,-40.2273,-42.7971,-43.5804,-42.3426,-47.9129,-52.9885,-48.9805,-46.7447,-56.6510,-51.4884,-41.7294,-52.8021,-32.6717,-50.4252,-43.0240,-39.6097,-15.0067,-30.8328,-32.8031,-31.1860,-29.1469,-33.8343,-39.1426,-64.6495,-41.2747,-37.8186,-30.8580,-31.5376,-45.3306,-44.0534,-58.8932,-48.9325,-58.1879,-61.8364,-49.3582,-32.8000,-34.8935,-24.1037,-35.1376,-21.8088,-29.4503,-21.6380,-18.2275,-14.2225,-17.9917,-25.7413,-15.2727,-12.9357,-36.5615,-51.6005,-39.7083,-47.5446,-49.3748,-47.7084,-57.1031,-57.7417,-54.9656,-43.7889,-54.5721,-65.2402,-62.9363,-50.4911,-55.3845,-52.9752,-30.8451,-24.8825,-29.2903,-23.2924,-22.7006,-20.6818,-26.0252,-52.1337,-38.7140,-33.6869,-42.2741,-41.2964,-38.1645,-43.5108,-35.5544,-41.2767,-54.5301,-61.3592,-80.1570,-61.6355,-61.0176,-43.6523,-35.5495,-24.5741,-14.7946,-19.6128,-3.2779,-19.0774,-34.0402,-31.2181,-29.9342,-25.9511,-39.4837,-38.9461,-40.5673,-44.0714,-37.0768,-39.1375,-39.5823,-52.3821,-47.2570,-67.9213,-70.5804,-65.7357,-50.8754,-37.6382,-46.4529,-43.1081,-36.3486,-27.7042,-32.8107,-33.3771,-37.4120,-29.0020,-14.5647,-22.6789,-29.6010,-18.5950,-31.1842,-20.0495,-22.7620,-38.5549,-51.0731,-26.3050,-39.0721,-45.3495,-35.4469,-34.2504,-30.2213,-42.5289,-36.1928,-42.2724,-26.5823,-26.6225,-23.0688,-24.6393,-25.6810,-28.5451,-15.7674,-12.3319,-30.0912,-28.1661,-34.3042,-45.6615,-64.3245,-68.5333,-68.7795,-76.5834,-51.1202,-56.0038,-62.3128,-77.8438,-71.8922,-49.3847,-28.6634,-40.6063,-27.6926,-31.9321,-24.4265,-13.2431,-23.0910,-24.0440,-9.0982,-17.6569,-14.8595,-28.8603,-19.2959,-30.5025,-35.8674,-43.7846,-53.2852,-53.8797,-58.1985,-50.7411,-61.5823,-73.7558,-75.4243,-70.2174,-48.5871,-53.1210,-38.1678,-33.1781,-30.7034,-24.5332,-27.6876,-46.9264,-28.4843,-17.5182,-7.1468,-10.9851,-37.8850,-37.9015,-45.8854,-24.7323,-27.2986,-34.2973,-35.5999,-26.2656,-25.8153,-26.4051,-31.6368,-35.7408,-24.9208,-21.2429,-25.7576,-22.9626,-7.5728,-2.1529,-19.1913,-17.0451,-11.7671,-11.8815,-18.7670,-4.6489,-17.3160,-21.4769,-19.7723,-42.1026,-48.9095,-61.6757,-58.9213,-67.2653,-51.1730,-51.1246,-55.3623,-51.8223,-44.3362,-54.5102,-42.4247,-37.1988,-51.6460,-35.4082,-48.5798,-38.8814,-42.6792,-27.0282,-47.5498,-55.6010,-45.7683,-53.2114,-63.9699,-55.1889,-74.7667,-70.5047,-63.9247,-50.5758,-43.9482,-45.2991,-56.5473,-70.4163,-44.9494,-28.6949,-25.9826,-30.6689,-41.3615,-32.8596,-14.2125,-36.7947,-35.5876,-20.1120,-30.3482,-35.9717,-18.4416,-27.6566,-39.4524,-45.9176,-25.9648,-39.8085,-33.5894,-39.7965,-53.1163,-52.8227,-36.7448,-36.9964,-59.7884,-42.7886,-44.2311,-48.1122,-37.5805,-45.4978,-37.7632,-36.7861,-32.1312,-27.6462,-30.8112,-12.0084,-17.7537,-13.2572,-31.6845,-38.7926,-27.3069,-46.9343,-48.2024,-44.5888,-57.6199,-43.0986,-39.1679,-31.5095,-30.9130,-27.2386,-36.7761,-39.0865,-18.0530,-41.6576,-40.4374,-21.1259,-11.3396,-21.6799,-23.2221,-48.9217,-46.1997,-56.8393,-43.3558,-61.7461,-62.6430,-48.9695,-45.3287,-54.6262,-51.1925,-51.9119,-58.4579,-62.6839,-47.3584,-41.3555,-36.2251,-38.9953,-46.7406,-31.5858,-33.6118,-36.4450,-35.1606,-36.6291,-27.8396,-45.6909,-45.6467,-39.7299,-26.4868,-34.8610,-57.6288,-40.9534,-44.7396,-69.9205,-82.3625,-62.8259,-48.0964,-43.5146,-57.8143,-41.9077,-66.1841,-51.8516,-43.6580,-26.5873,-20.5624,-24.1050,-40.4151,-27.1071,-32.2129,-53.4117,-58.6384,-38.7634,-49.5832,-61.9285,-57.3617,-55.2066,-62.0279,-72.1890,-48.3461,-53.8994,-66.1670,-66.6715,-62.4696,-70.5229,-59.9212,-67.3896,-56.7192,-60.1296,-53.9578,-30.3150,-38.3042,-41.1059,-58.0850,-49.6484,-41.9614,-48.2113,-67.7747,-54.5823,-53.5907,-52.5790,-73.6466,-91.2661,-85.7197,-84.0718,-72.1421,-92.8421,-72.5228,-51.9931,-56.0877,-49.0316,-64.4726,-59.1768,-31.8551,-35.4738,-35.5459,-42.3496,-33.9751,-39.1082,-20.3346,-10.1003,-32.3699,-51.4507,-72.4090,-67.9261,-46.0248,-63.4171,-60.0216,-49.9253,-43.4306,-55.1027,-56.5955,-51.0939,-52.3467,-46.3212,-32.7584,-25.3703,-6.8638,-14.0081,-10.5853,-25.0040,-15.5722,-22.4700,-14.5550,-12.0142,-15.3097,-0.2345,-8.9796,-16.9421,-24.4576,-25.6197,-51.7222,-38.8374,-56.1003,-54.4166,-43.1562,-37.4497,-52.3917,-45.8037,-35.7631,-30.9994,-15.3142,6.0844,-15.7564,-29.8413,-36.0498,-30.8145,-34.1453,-24.7270,-26.0846,-33.5062,-21.0798,-43.2259,-43.5829,-39.2766,-38.0827,-37.3845,-44.6220,-43.3720,-54.7482,-43.2324,-40.0501,-37.6284,-60.6735,-54.9349,-41.9373,-62.1138,-37.6861,-30.2951,-42.6797,-45.3046,-52.0447,-51.0527,-53.4184,-58.2989,-61.5110,-60.8762,-61.0139,-49.3947,-67.9723,-69.2611,-79.2150,-83.8663,-93.2001,-91.4139,-83.5105,-66.7597,-56.7944,-73.3477,-63.1515,-62.6847,-48.7490,-34.4091,-41.9042,-37.3815,-26.3805,-36.0277,-49.0768,-47.8899,-57.5725,-52.5323,-56.4268,-73.2521,-65.9442,-67.6115,-63.3475,-61.1755,-65.0395,-70.5331,-63.8016,-77.1966,-83.6825,-93.1495,-67.1725,-64.1693,-53.7681,-66.6899,-54.9348,-44.2652,-52.6619,-43.7895,-50.4341,-48.3454,-45.0016,-46.1050,-57.7823,-69.9971,-70.7417,-66.3537,-79.4615,-75.7009,-76.1853,-74.0994,-79.3836,-80.8854,-57.5053,-49.0949,-62.9218,-42.8286,-31.1965,-32.5116,-39.9290,-43.4668,-35.4492,-33.8890,-36.6958,-42.3244,-50.6739,-42.0792,-42.5397,-47.0110,-48.2889,-40.1985,-56.1692,-46.0027,-57.5488,-43.3000,-39.5273,-46.9852,-31.5368,-37.8424,-46.3113,-38.9738,-23.6720,-23.4824,-37.1352,-30.6609,-27.1681,-29.6492,-10.9925,-28.1379,-35.4071,-32.3688,-47.4630,-46.2516,-69.2889,-64.1492,-52.6208,-51.3175,-71.0367,-73.8100,-63.0848,-69.2046,-64.2756,-54.3325,-63.9364,-74.0300,-66.2210,-54.1662,-62.8671,-50.3119,-51.4694,-26.4874,-22.9986,-49.6600,-47.5761,-59.4778,-57.1416,-46.1750,-66.0729,-72.1577,-78.7409,-70.1743,-100.9876,-81.8007,-73.0649,-71.9177,-55.0044,-49.1089,-61.5108,-36.2471,-54.3821,-35.2287,-40.5506,-46.5323,-46.3878,-44.5553,-45.6766,-57.1182,-57.4492,-65.8735,-73.7354,-74.7219,-78.6076,-73.2990,-66.5628,-66.3136,-56.2210,-84.1652,-65.8605,-62.9163,-53.4807,-50.7427,-54.2410,-50.3621,-52.9004,-42.7068,-55.5564,-35.4781,-37.7582,-41.0234,-38.5762,-35.9244,-22.8111,-10.5412,-31.0442,-52.2312,-51.0210,222.8025,188.6583,166.7466,160.3615,151.8989,122.3297,118.4036,120.8471,112.5478,113.4606,89.5041,105.3474,70.5433,57.6863,65.5853,54.3126,55.9375,49.9888,40.8471,29.0559,29.4608,17.6383,17.4552,-1.8333,-19.6410,-32.9536,-29.2744,-41.1940,-43.7590,-32.3922,-45.1759,-22.4835,-28.0706,-30.8027,-35.6764,-22.0242,-26.1666,-31.6125,-28.1663,-43.5170,-45.7430,-40.8790,-30.1460,-32.2708,-29.6533,-47.1536,-43.1563,-53.0615,-63.8545,-58.7389,-64.9995,-71.7937,-68.8117,-70.3218,-70.8281,-72.9178,-76.9511,-65.0626,-67.2218,-65.0315,-53.8196,-42.4954,-44.1666,-49.8020,-49.8682,-44.9342,-66.5377,-49.7192,-69.4995,-69.4609,-59.9577,-39.5859,-44.2607,-57.0983,-67.8342,-87.8445,-77.0454,-81.5231,-82.3695,-73.6635,-73.6643,-63.7039,-79.4021,-63.8278,-65.0730,-58.0485,-50.2322,-57.4109,-47.8770,-49.9400,-54.5761,-54.8718,-55.0442,-61.4494,-58.9214,-63.3618,-66.4994,-53.0557,-63.6710,-73.4406,-73.3330,-82.5850,-79.0461,-76.5419,-78.7500,-63.4838,-63.6702,-58.3339,-51.1481,-23.3619,-47.5062,-60.1468,-53.2499,-31.1314,-24.4351,-37.7933,-26.3201,-32.3790,-43.8807,-48.5116,-47.6591,-45.1303,-51.7015,-61.7679,-56.8938,-40.2826,-49.7826,-45.3508,-45.4796,-45.4614,-42.9341,-33.7135,-31.7537,-34.0058,-38.9822,-29.9266,-31.3187,-30.0171,-11.7445,-41.9469,-31.5274,-46.0053,-41.6571,-29.5677,-60.5700,-66.9409,-66.5907,-74.0249,-64.9464,-75.2068,-70.6498,-86.2902,-89.4782,-76.1465,-78.1413,-53.9103,-70.2350,-64.2153,-49.2992,-53.4998,-55.4297,-29.7105,-48.9635,-46.4708,-46.4676,-42.1730,-48.1239,-62.3073,-63.7823,-65.0781,-62.3650,-75.9778,-58.0835,-78.4421,-78.4661,-87.7448,-88.9152,-83.3349,-79.3361,-70.9441,-68.2298,-52.4427,-58.3891,-56.6867,-48.2846,-35.8281,-40.7421,-47.1516,-60.1742,-61.7737,-61.7738,-44.3135,-51.9792,-66.9830,-69.2246,-72.8510,-71.9948,-60.2493,-59.1865,-38.2940,-38.9870,-37.1140,-40.6537,-46.0321,-36.5435,-37.0799,-20.1513,-25.1920,-26.3436,-25.4019,-16.9317,-39.2750,-22.3255,-41.1794,-57.7771,-59.7668,-68.1681,-55.6188,-68.0048,-61.2741,-56.0999,-70.6325,-70.6720,-76.2073,-63.9719,-37.7730,-47.0336,-55.0018,-55.8240,-48.7002,-44.4239,-45.3273,-38.3687,-48.5589,-48.7772,-40.2992,-50.6901,-40.2429,-49.5717,-66.5095,-58.4023,-70.8372,-56.6141,-60.8857,-48.0890,-56.7362,-78.1320,-87.3463,-77.2524,-72.4224,-45.5723,-50.9933,-42.3609,-46.9960,-43.6100,-37.7767,-26.7820,-31.9170,-40.6899,-24.2248,-39.5485,-48.8632,-67.7264,-46.3409,-49.8495,-54.3032,-61.7727,-66.4289,-65.9404,-59.9394,-58.8026,-64.2748,-56.2706,-62.8732,-65.1074,-59.6659,-67.1610,-55.1338,-63.7994,-58.7133,-59.4216,-39.1240,-20.3953,-28.8268,-22.0644,-11.4408,-30.0235,-46.1109,-50.6181,-50.6772,-58.4595,-59.8862,-49.9470,-53.1435,-74.9153,-70.6471,-63.4684,-50.3021,-39.0938,-26.2103,-47.3779,-47.5214,-38.9494,-46.0529,-42.0214,-45.1434,-59.1057,-38.8674,-36.5693,-27.8626,-40.7301,-55.6113,-55.3901,-72.0435,-67.5702,-54.8184,-60.2011,-56.1985,-76.7117,-65.2948,-61.1012,-46.3273,-42.6589,-38.0781,-29.0859,-38.5701,-26.7459,-41.6913,-40.1188,-25.4628,-37.0078,-21.4816,-21.2519,-15.8402,-25.6611,-28.8241,-30.1743,-43.2722,-47.3087,-41.8166,-47.4275,-52.4328,-49.4607,-38.5185,-52.9658,-55.5992,-60.8280,-43.5051,-29.9985,-22.4636,-21.2005,-10.1288,-5.9346,0.2783,2.1966,5.1871,-10.1735,-20.3254,-6.6897,-4.0298,-0.0306,-4.2169,-5.7819,-21.9877,-34.3602,-50.7675,-43.3013,-48.9497,-44.1106,-42.8418,-38.6881,-39.2611,-32.5593,-53.1720,-27.3278,-9.3673,0.8347,-3.1172,2.7041,-8.9988,-13.3745,-12.7404,-21.2084,-31.8893,-35.5976,-42.2948,-34.1698,-40.4249,-47.4004,-50.8759,-44.4437,-44.3499,-59.9181,-59.6867,-41.5652,-51.1076,-31.3744,-14.9833,-9.5828,-12.7221,-10.0461,-1.4204,-34.0440,-22.1604,-10.7820,-17.5910,-9.2085,-20.6438,-25.2303,-33.0167,-40.0124,-43.3476,-41.0623,-48.7548,-37.9919,-39.3283,-39.5620,-57.2697,-60.4552,-40.5245,-12.8847,-20.5841,-32.8375,-23.9144,-20.2361,-31.2040,-11.3068,-19.3758,-20.1511,-19.0585,-14.5246,-32.9034,-44.3866,-35.0764,-52.6296,-41.0265,-28.9945,-32.3993,-30.6799,-32.6195,-23.1283,-44.6746,-40.7799,-43.2008,-31.3793,-32.4047,-18.0266,-28.4233,-13.3521,-16.1001,-20.1516,-15.9971,-18.5150,-20.4840,-28.7172,-36.6566,-39.9692,-51.7205,-39.1521,-55.4111,-52.0098,-46.9313,-50.3312,-71.3808,-61.3456,-55.4059,-56.1473,-47.4525,-63.4626,-70.3241,-47.2868,-52.2603,-57.4179,-39.6662,-25.3882,-36.6719,-12.4516,-33.1216,-31.8604,-41.9890,-35.7664,-39.2407,-48.0776,-21.0045,-45.8604,-50.3932,-40.4839,-35.4834,-45.3982,-65.7231,-60.7309,-72.8838,-53.8813,-66.9048,-57.7377,-44.3707,-35.0715,-32.6950,-15.9244,-17.4325,-19.4551,-30.8071,-12.1622,-27.1278,-11.1581,-11.6971,-28.7963,-37.3512,-72.9629,-58.0346,-48.7742,-54.9960,-74.6670,-74.6463,-89.0413,-68.6610,-77.1353,-51.0821,-44.7523,-53.1027,-44.4576,-46.3608,-42.9536,-50.6024,-39.9020,-56.3393,-58.4450,-45.1933,-43.8334,-41.8456,-47.6400,-32.7665,-46.9362,-51.8107,-54.6075,-51.9523,-57.6012,-61.9316,-64.9331,-86.4814,-86.3683,-70.2863,-64.6349,-55.1573,-54.6515,-50.2391,-60.8905,-53.1807,-59.6773,-49.5219,-63.7156,-51.3756,-63.7632,-58.0615,-50.5679,-61.0552,-80.6308,-80.4927,-89.5679,-91.6517,-76.8586,-70.7396,-69.9529,-68.5389,-72.6237,-74.8301,-78.7589,-72.2682,-74.0297,-64.9255,-51.9301,-44.7037,-21.6451,-51.6650,-49.0489,-58.4831,-53.3540,-52.5515,-47.3554,-59.9249,-64.1544,-71.2709,-82.3788,-79.5627,-77.5209,-73.3387,-69.7862,-74.9614,-76.1368,-82.7614,-63.5268,-64.4157,-48.6994,-39.9249,-49.0373,-53.5483,-44.0417,-39.1827,-43.6787,-45.3970,-38.3585,-41.2869,-53.2456,-66.4507,-56.2700,-66.4954,-63.5690,-68.2007,-84.6736,-71.4028,-65.7755,-64.2026,-69.2070,-81.1478,-55.5885,-57.5715,-67.2920,-60.7274,-47.7200,-40.9033,-46.2127,-39.1114,-58.1759,-56.4598,-62.2901,-50.8639,-29.6638,-26.3486,-44.6888,-57.8638,-59.5316,-59.6107,-76.8785,-70.6286,-56.7619,-73.6284,-71.4902,-62.0334,-56.1734,-57.4070,-46.7956,-34.9977,-21.1425,-32.6981,-30.4059,-18.9321,-34.5160,-41.5169,-29.7854,-24.0767,-32.4775,-42.3062,-56.5415,-49.6695,-44.4386,-65.3723,-63.2844,-65.6119,-67.8291,-59.7015,-56.0397,-55.4937,-64.8654,-65.3965,-45.8419,-40.3227,-15.6568,-7.3235,-6.3696,-26.2760,-16.6347,-12.8696,-16.0002,-25.5096,-18.8287,-31.6396,-38.8680,-54.4548,-44.0850,-51.6747,-50.2390,-53.8682,-56.9278,-59.3565,-54.9189,-63.3142,-71.5887,-56.5781,-63.5460,-65.3807,-58.3026,-43.9941,-43.9345,-55.1259,-38.5089,-23.2781,-32.7171,-30.2785,-21.8167,-24.5593,-30.3947,-58.9920,-31.3568,-36.5998,-30.4713,-59.3420,-71.9274,-60.0263,-58.6115,-48.8117,-43.1593,-49.3380,-47.9057,-39.2341,-40.7151,-36.5615,-21.7731,-16.6356,-18.9189,-32.7154,-49.9842,-39.2250,-43.7321,-42.6051,-48.8327,-48.7554,-59.6621,-62.6343,-46.9284,-61.5832,-55.0347,-45.5940,-43.7370,-43.4441,-45.0350,-39.2984,-32.6105,-39.6877,-54.8700,-42.1024,-28.3767,-31.4437,-13.7832,-23.1790,-22.6012,-16.6251,-28.0877,-29.3305,-29.9368,-51.2864,-47.1756,-41.6501,-49.0062,-45.6750,-71.8197,-74.9921,-55.2771,-51.6778,-57.4570,-51.4262,-47.4640,-56.6097,-53.2186,-41.7197,-34.0228,-46.0047,-38.3374,-35.4856,-29.9504,-33.5525,-38.0255,-29.0346,-45.1648,-50.8242,-64.0330,-60.1483,-51.7218,-53.2074,-52.6419,-52.8204,-45.6205,-69.3248,-79.4201,-74.1426,-67.5882,-62.7443,-46.9984,-30.0622,-22.5852,-25.8083,-15.5124,-35.8567,-47.7054,-32.8950,-54.4441,-49.9657,-42.2875,-49.6264,-55.9281,-66.6755,-61.0179,-56.2751,-67.5042,-78.7022,-84.2136,-79.9068,-68.8586,-67.3245,-75.6695,-81.9703,-59.5070,-60.5720,-45.9439,-51.3142,-49.1036,-34.0765,-14.6760,-25.8711,-34.6682,-40.0308,-60.5313,-62.8739,-71.2436,-40.8776,-41.3895,-54.2720,-62.6898,-77.8333,-68.0258,-52.8038,-64.5000,-72.4216,-77.8793,-53.4340,-60.7191,-71.9613,-63.7992,-60.4835,-46.6590,-39.5086,-40.1590,-29.6473,-32.0282,-27.2910,-36.2946,-18.9397,-50.1668,-63.5444,-69.8943,-70.3959,-82.9129,-73.3921,-87.5472,-74.6898,-81.1565,-70.6371,-55.6248,-40.9272,-61.7186,-55.6973,-55.9661,-53.7981,-46.5779,-31.5233,-34.4723,-14.9561,-29.2800,-44.5978,-44.8267,-49.8224,-43.9356,-65.0929,-67.2793,-61.0983,-50.0818,-44.4931,-44.4123,-52.8115,-58.9197,-55.1197,-69.8270,-72.8375,-53.1245,-56.2854,-44.5258,-36.3405,-29.4558,-20.0500,-18.6278,-23.6752,-29.2983,-27.0826,-32.7560,-28.6223,-10.5953,-30.0558,-35.6619,-46.5119,-37.4091,-39.9418,-42.5747,-47.2458,-41.8030,-40.2606,-48.2388,-51.0047,-44.4156,-56.3056,-54.1482,-48.1925,-55.7271,-36.5553,-45.7701,-42.4762,-39.3701,-38.4362,-42.6513,-43.8927,-47.4496,-55.1736,-60.5362,-53.9007,-79.0891,-70.6308,-71.6485,-67.8071,-80.3116,-72.6446,-64.3015,-52.0707,-54.7249,-63.3640,-54.0450,-40.4036,-50.2917,-39.3584,-34.3892,-31.2748,-9.1170,-30.4904,-30.3481,-40.9668,-35.4435,-37.2773,-53.1569,-56.4277,-67.3431,-71.5854,-58.5857,-72.3989,-84.6453,-54.6997,-67.8020,-61.0512,-44.2162,-53.9655,-54.5892,-60.8813,-60.1698,-44.4246,-35.0745,-33.5205,-38.3232,-37.2579,-49.4840,-34.1278,-33.5664,-24.2803,-43.0161,-56.3739,-54.6439,-58.6159,-55.9499,-61.8086,-73.4781,-74.5186,-55.3504,-41.4019,-45.1631,-36.1689,-30.7420,-33.9930,-38.7110,-27.2284,-15.8635,-18.3506,-18.4787,-28.9841,-30.1223,-31.9335,-33.5673,-31.6440,-60.4500,-49.4542,-52.5730,-63.3617,-51.1378,-59.8738,-54.9445,-35.9352,-38.7487,-41.0347,-41.1137,-40.5432,-22.3994,-29.0912,-41.6069,-44.6339,-28.4881,-31.0889,-39.5150,-26.1644,-29.1897,-24.7819,-28.1866,-38.7236,-35.1267,-46.7252,-51.0921,-52.7533,-43.0394,-52.1056,-41.6223,-40.9023,-64.2709,-80.0977,-50.5098,-54.6745,-55.6756,-48.7540,-39.8210,-21.7236,-23.4529,-13.7293,-18.4683,-25.7673,-26.8423,-20.4262,-19.4660,-22.6372,-36.6248,-39.3263,-42.1425,-55.4287,-66.3522,-66.5681,-62.0096,-53.8201,-50.8113,-69.5536,-64.4617,-57.8057,-46.5336,-52.2038,-50.3904,-52.4117,-35.4647,-35.7911,-37.5231,-31.9306,-22.2616,-38.0294,-37.8328,-23.8268,-32.7021,-32.5814,-38.1244,-45.7438,-50.1323,-42.9502,-40.7812,-44.9053,-61.3736,-45.8318,-55.8208,-57.8722,-49.1733,-37.0853,-35.2715,-37.6295,-28.1243,-31.9406,-37.7542,-38.5601,-30.9567,-36.6242,-47.1146,-35.0147,-44.6387,-37.2257,-62.7161,-61.8879,-69.0952,-74.3209,-70.0575,-54.8314,-67.9881,-79.6284,-88.9829,-86.2862,-73.4591,-68.1486,-62.2364,-70.3787,-48.6548,-32.2458,-27.3730,-52.4604,-47.5020,-45.6544,-39.2613,-46.4470,-27.7119,-39.9744,-44.1688,-35.9117,-50.6130,-54.1976,-66.5677,-73.1854,-64.0536,-40.9592,-48.8133,-52.9801,-59.5372,-45.9585,-58.8948,-57.3877,-41.6417,-15.9783,-13.4378,-31.9579,-37.9454,-45.0583,-32.8858,-30.6988,-27.3099,-30.0059,-42.0272,-43.0054,-55.1729,-51.2781,-59.9776,-55.3263,-56.4682,-59.1686,-56.4441,-73.6047,-69.4100,-60.6174,-63.4626,-50.9121,-42.0715,-24.6723,-27.4570,-20.3202,-25.5480,-32.9174,-29.3899,-26.2717,-27.8318,-45.1996,-65.0572,-70.9551,-65.7117,-77.8912,-49.6289,-57.0528,-69.5704,-72.5352,-57.6598,-70.3315,-68.2946,-60.4490,-46.9200,-35.3965,-25.5309,-23.7446,-29.6781,-24.5097,-39.5027,-51.0504,-45.1848,-46.7584,-47.8082,-51.5665,-49.0007,-41.3584,-38.6381,-68.0976,-70.5395,-65.7273,-53.5263,-58.6075,-59.9083,-45.6909,-39.8944,-44.6330,-46.9564,-35.4262,-33.5693,-29.5958,-25.4048,-10.6057,-10.0914,-2.2957,0.4581,-8.3967,-17.0847,-8.6469,-11.9858,-1.5269,-21.5816,-26.3443,-34.1385,-41.4762,-44.5866,-40.7787,242.6508,231.8447,210.8446,191.4383,179.8634,166.3431,179.1636,159.2612,160.8634,149.1289,139.4357,126.6352,111.7494,104.0196,115.2135,97.3266,94.0892,84.6348,60.2444,53.7158,40.3220,22.7984,23.3135,23.9539,12.6469,10.5421,13.0171,26.5598,-0.1685,13.7543,10.7465,8.6795,14.0520,23.4778,25.2515,21.5878,26.5578,24.8067,14.7943,-1.9026,-2.3420,-10.4544,-29.5262,-44.1326,-51.4591,-38.0818,-37.1728,-46.7927,-31.0103,-33.6356,-24.8648,-31.6279,-40.8890,-28.0968,-23.9320,-32.3899,-36.9568,-24.6410,-27.2465,-11.7574,-19.4271,-9.6111,-38.2098,-26.3647,-20.0127,-41.2382,-42.9713,-49.4812,-55.2159,-53.0818,-65.3633,-58.0467,-52.6125,-57.7236,-60.8525,-43.6331,-43.3712,-55.4375,-55.6277,-47.4294,-30.8107,-26.9950,-21.7986,-29.7114,-33.7846,-22.3129,-33.5696,-33.9112,-49.4023,-45.0591,-36.8056,-51.0805,-47.8924,-72.4330,-62.8064,-55.7607,-42.2586,-59.9062,-46.2010,-40.7577,-51.7263,-47.1345,-41.3662,-47.9852,-34.6146,-15.6290,-16.7065,-19.8803,-16.5941,-11.8944,-11.8041,-21.4702,-9.2363,-13.6430,-26.1241,-44.9368,-52.6906,-50.9494,-51.5414,-64.1500,-46.8001,-37.7642,-42.5289,-51.5246,-49.8753,-37.7988,-34.7859,-25.5095,-18.8315,-13.8157,-27.1204,-17.3530,-18.6183,-14.8897,-6.3594,-5.2362,-5.5377,-18.0397,-28.7604,-37.1998,-50.1392,-32.0461,-43.5669,-40.5700,-41.6377,-56.7292,-52.2535,-31.0503,-36.0822,-39.9003,-31.7370,-17.2839,-15.4590,-27.6481,-3.2796,-4.6132,-14.6262,-21.8198,-6.7577,-12.2910,-28.8992,-19.6729,2.0001,-23.6657,-37.2410,-40.1977,-21.4097,-26.4185,-25.5995,-34.3823,-30.7614,-45.0598,-37.7235,-32.1111,-21.9914,-28.1591,-34.8334,-30.7950,-43.0230,-44.2082,-18.2333,-21.6999,-19.0613,-8.8649,-4.8871,-12.0415,-7.3726,-23.0105,-32.3277,-40.9153,-56.4965,-48.2617,-73.9574,-63.0860,-56.1344,-59.0347,-51.0720,-29.4788,-31.5851,-43.7489,-42.1543,-43.5377,-26.6678,-31.2846,-41.4051,-24.1627,-17.4519,-13.6331,-22.7932,-25.9709,-12.8642,-29.5486,-32.2840,-45.4893,-44.2720,-62.9365,-60.4356,-64.9802,-57.5529,-40.9159,-48.6004,-34.6490,-24.1104,-30.2549,-20.3640,-19.8945,-20.1693,-12.4916,-5.4498,-25.2962,-32.1635,-32.6728,-19.0357,-21.1495,-40.6116,-58.2644,-50.8927,-43.1933,-48.8377,-50.1102,-55.0996,-44.7573,-47.9902,-46.3859,-47.8382,-43.6597,-42.8022,-49.5068,-36.5891,-28.2636,-23.4881,-29.6602,-41.6106,-42.2912,-39.8210,-37.0127,-43.3572,-56.4312,-63.5337,-76.4101,-84.5535,-60.0883,-38.7008,-45.3250,-70.1428,-69.3816,-83.1926,-83.8371,-79.8155,-68.3852,-62.0321,-53.5532,-46.8275,-50.8548,-47.7508,-54.7292,-56.0859,-53.5384,-36.1717,-42.9920,-54.5397,-43.6391,-48.9437,-30.5166,-45.8514,-40.4925,-40.9990,-58.8250,-54.2945,-51.4116,-54.6147,-54.6099,-64.3257,-49.3110,-50.4673,-39.3634,-28.8970,-25.8625,-23.8973,-18.3378,-14.2184,-8.1887,-19.5480,-20.6268,-18.6831,-33.9747,-44.4029,-35.8409,-44.4823,-55.3910,-45.4061,-43.2425,-67.3762,-55.9484,-80.3731,-64.1849,-44.2376,-56.5974,-52.2133,-46.5686,-60.3328,-44.8713,-37.2938,-23.3271,-43.4427,-39.6768,-42.6036,-41.6139,-26.0972,-35.2310,-44.1031,-48.5592,-53.0544,-57.2587,-65.8946,-61.5351,-63.3709,-66.4191,-59.1023,-56.9036,-59.9316,-51.5206,-29.0674,-27.3823,-50.0850,-49.7532,-44.8783,-25.2157,-29.4403,-20.5851,-5.8320,-19.0450,-16.8223,-21.5170,-32.3790,-26.7248,-42.8549,-34.9846,-53.8670,-61.4705,-71.0741,-73.7253,-73.7575,-87.1382,-70.1852,-65.5334,-52.0126,-50.8805,-56.0903,-50.8516,-42.8568,-27.6446,-41.4962,-41.5068,-43.1412,-42.2217,-26.0796,-22.0097,-13.3335,-14.1421,-9.9787,-33.5900,-44.4633,-55.5814,-45.1566,-49.7421,-50.0364,-63.2086,-53.3928,-51.8309,-50.9718,-52.5696,-34.2741,-26.2430,-46.8993,-38.4638,-60.5793,-37.6699,-51.5260,-43.2709,-46.2500,-37.4133,-31.6318,-52.2514,-45.2059,-44.8044,-32.0130,-43.5666,-59.8072,-56.0237,-41.7416,-49.2818,-63.4091,-60.0063,-58.4329,-59.4461,-64.0579,-49.6061,-28.1746,-34.0053,-28.2179,-19.3372,-1.8407,-14.8326,-10.9717,-24.9561,-26.6738,-28.0233,-36.7767,-35.2572,-31.1663,-46.0897,-43.8042,-41.5403,-52.9071,-41.7298,-48.9618,-53.7741,-65.0104,-49.3329,-34.8109,-18.9200,-21.6565,-17.3265,-31.1643,-20.7447,-8.3708,-19.9150,-6.6402,-7.6774,-13.9463,-22.4369,-28.2984,-11.4123,-21.8379,-30.6642,-41.0286,-42.0581,-43.3621,-43.5836,-44.2622,-58.0778,-63.5885,-52.2284,-60.4723,-46.1781,-39.5047,-24.2248,-10.3624,-31.6036,-2.1636,-15.6447,-15.4083,-26.7743,-12.1648,-19.5789,-26.5371,-42.3894,-30.2786,-25.0480,-33.5559,-25.4156,-28.4257,-42.0628,-29.3219,-40.1239,-42.1863,-41.3577,-43.2900,-59.3107,-39.3246,-36.8144,-8.1403,-1.0965,-5.5222,-14.4478,-21.0320,-16.3165,1.3003,-19.9115,-33.7414,-9.0872,-3.0955,-4.4011,-13.1765,-18.9304,-35.1697,-54.8401,-41.4973,-35.5001,-40.0347,-39.9092,-42.7294,-35.8336,-7.5478,-1.1739,-11.9493,-9.7750,-15.1642,0.1220,8.9807,-13.1450,-0.4869,1.9116,1.8987,8.8611,6.7114,-15.1990,-16.6808,-26.3996,-36.0608,-32.3369,-31.0795,-36.9521,-46.3858,-43.4028,-40.9183,-38.8322,-25.0909,-17.5693,-10.2742,-19.8495,-13.4780,5.3132,-3.4529,-2.2297,-1.4337,8.7517,8.9735,4.6261,-8.5703,-17.7351,-0.9837,-11.3485,-24.1009,-14.9251,-28.2227,-15.3108,-15.2876,-31.6841,-19.9580,-12.0132,2.1395,-18.0658,-4.2147,-13.1887,-22.4540,-13.3132,-11.1122,-16.8721,-6.1160,-1.0914,-9.1271,-18.7240,-19.7628,-21.3364,-22.0467,-19.3098,-30.6211,-46.7712,-42.2661,-33.7504,-23.2752,-18.0813,-14.1416,-24.6224,-22.1742,-35.0323,-20.5874,-25.1569,-11.0512,15.2688,-2.8533,-13.6602,-6.4864,-13.9361,-16.1919,4.8467,-4.0686,-16.0119,-27.1962,-30.2345,-20.7365,-35.7063,-60.4278,-23.2396,-34.6926,-33.9102,-27.0124,-29.6053,-27.4832,-35.2800,-38.4246,-22.7567,-10.9371,-23.9416,-23.1159,-8.8985,-20.5756,-23.4109,-25.0455,-26.8811,-40.0317,-34.6867,-28.8771,-28.2355,-21.1881,-16.9262,-21.9634,-31.0870,-43.0158,-48.1194,-41.9495,-34.1928,-28.8637,-27.6823,-29.5178,-19.4552,-12.8351,-15.3636,-24.2199,-32.7568,-34.9222,-34.0917,-28.3059,-30.2765,-48.3761,-46.5542,-45.0669,-56.0952,-51.3934,-59.9348,-66.2174,-62.2778,-61.4610,-70.8672,-66.4698,-60.7545,-69.4312,-75.4304,-70.8357,-57.9324,-57.4886,-43.2412,-24.7610,-42.1343,-31.6820,-12.1311,-25.0318,-34.8340,-36.6337,-34.2901,-30.9178,-53.2068,-63.9597,-72.4745,-66.6737,-77.9925,-73.1655,-72.5589,-57.2404,-64.3066,-58.2432,-67.8366,-53.0952,-55.1497,-41.5518,-14.8488,-19.0726,-22.5530,-1.2659,-29.9800,-23.9389,-45.8885,-43.8533,-53.1895,-45.2797,-48.6820,-53.7881,-47.9194,-62.0508,-58.9636,-58.7739,-76.9086,-71.9510,-61.9765,-52.6516,-44.4347,-54.2028,-54.8418,-55.5126,-44.4136,-45.6224,-44.0775,-41.2903,-37.6121,-48.1250,-52.8722,-51.2082,-78.8583,-67.1330,-69.2014,-55.4358,-68.9266,-74.1188,-73.0438,-78.3012,-77.2006,-73.2172,-75.5801,-74.7256,-76.2055,-72.3971,-57.3362,-50.3158,-55.8518,-34.8575,-27.8221,-23.6137,-26.8358,-23.5816,-15.7684,-38.5082,-51.6869,-56.8187,-34.8841,-38.4174,-64.5157,-69.9430,-68.8711,-61.2910,-81.6817,-85.1385,-53.3977,-61.7099,-61.3773,-64.3474,-60.3897,-73.1650,-67.1121,-59.3728,-73.3161,-58.4606,-55.8764,-55.9677,-59.7529,-66.7347,-74.4049,-62.9029,-68.6033,-79.3154,-72.7283,-77.3169,-83.3162,-95.4383,-76.7212,-86.4022,-76.4301,-77.7534,-68.8341,-51.2895,-48.7646,-41.2366,-43.7241,-44.0819,-57.5590,-45.9161,-39.9162,-28.9457,-40.2077,-37.3171,-38.0752,-35.8489,-48.9648,-51.3983,-76.1136,-83.1293,-86.9838,-63.4953,-59.9268,-58.9303,-69.4380,-67.0158,-57.3846,-39.2611,-31.7146,-35.2900,-36.0756,-28.3814,-39.1745,-41.2170,-40.3351,-46.2750,-42.2919,-47.2959,-33.2462,-36.3034,-36.9882,-61.6540,-45.9555,-74.4171,-78.3074,-73.4394,-59.9523,-67.7087,-73.4725,-77.9801,-78.0851,-55.2219,-50.9981,-45.3165,-53.8688,-76.2348,-64.3573,-47.8144,-50.6606,-52.2802,-54.0895,-39.4406,-42.9334,-47.9532,-60.8358,-62.9546,-78.5162,-78.2655,-98.4983,-93.8478,-80.0646,-61.1190,-89.5253,-85.7273,-68.1997,-51.8326,-58.1389,-53.6997,-58.8203,-57.9133,-51.4642,-53.0005,-43.4445,-57.0902,-40.7285,-46.7061,-53.6366,-67.5605,-64.4388,-50.9018,-62.7598,-65.6021,-77.3604,-76.4712,-86.5059,-76.5918,-72.4695,-72.8624,-80.0196,-73.2293,-62.4605,-63.4238,-58.0188,-39.9515,-55.2386,-42.3922,-54.9524,-42.9217,-43.1923,-56.7037,-67.9197,-77.1546,-69.2553,-64.0715,-78.2825,-76.6075,-90.6062,-86.7081,-93.8617,-88.3422,-91.7662,-96.8724,-91.8243,-90.8836,-87.5478,-65.9857,-72.2135,-82.0599,-64.4936,-47.2821,-52.1648,244.6813,215.2182,209.0251,198.2780,175.8286,144.7388,132.7067,133.0092,107.1048,103.8193,81.6341,70.5293,48.9128,44.3193,37.5787,41.0173,37.7110,36.3509,26.0455,20.8586,26.9391,20.0145,33.4925,24.5020,19.7403,21.5270,11.6567,-5.8415,-5.8966,5.0764,-8.5458,-28.0576,-21.4805,-33.0792,-42.3161,-46.9304,-36.5839,-58.4062,-51.4685,-39.5843,-25.7971,-31.5043,-39.2006,-22.4077,-38.8670,-26.0221,-21.6474,-28.6360,-17.6176,-24.0882,-19.1311,-36.9077,-24.6514,-28.3530,-20.3466,-29.8740,-25.6157,-35.1155,-44.5264,-42.1768,-45.8679,-54.8135,-78.1536,-68.4245,-49.4541,-63.1958,-46.3281,-44.5269,-54.7986,-61.7309,-45.3942,-22.6654,-40.9959,-42.4651,-41.2017,-25.4311,-36.0721,-40.7420,-29.3042,-40.0715,-58.4221,-65.2618,-53.0444,-66.3302,-84.8336,-91.0263,-87.6905,-88.2315,-91.2640,-79.7471,-70.6436,-57.5068,-34.9609,-42.0626,-37.2898,-27.9058,-28.5216,-20.8896,-18.7535,-16.1876,2.1514,-14.8208,-36.0562,-32.7033,-43.9702,-41.4882,-57.6711,-57.9095,-45.7775,-39.1862,-41.1292,-38.3906,-40.5700,-41.1237,-41.9885,-28.0062,-21.6175,-25.8434,-21.5793,-6.3500,-14.7005,-13.7327,-10.4080,-15.6454,-21.2959,-13.8094,-15.3366,-4.2016,-15.4892,-30.1611,-25.4294,-29.9528,-27.5690,-43.0401,-41.5072,-43.4180,-42.6373,-45.9755,-31.8796,-26.4306,-16.7529,-22.5823,-22.0645,-10.6613,-16.2478,0.3669,4.4610,5.0869,-4.0523,-13.8559,-12.6952,-13.9493,-22.4082,-12.3996,-21.4213,-34.4187,-18.8686,-33.8746,-45.8918,-41.5603,-19.7907,-11.9146,-14.3170,-9.7764,-8.3658,-11.4354,-11.4115,-7.6568,-5.5587,-14.1852,-2.6311,2.3848,-12.1618,-17.1507,-16.0514,-29.0936,-37.0090,-23.6878,-37.0028,-38.8557,-44.1056,-32.5503,-37.1007,-48.7788,-56.8284,-48.8914,-38.3161,-36.7145,-33.6033,-28.0209,-20.4843,-21.8950,-17.0088,-21.3766,4.0919,-13.8308,-13.7637,-13.5520,-23.9548,-25.2219,-30.1481,-39.8559,-35.7458,-49.9683,-28.3539,-34.6088,-41.2042,-59.4019,-50.2786,-25.3454,-0.6492,-19.2926,-23.4547,-28.9939,-38.3712,-26.9003,-41.1949,-43.4009,-40.4732,-22.9172,-28.8943,-30.8635,-36.1450,-49.0715,-51.1052,-55.6167,-64.7742,-62.0954,-66.1823,-55.1067,-55.6129,-70.4069,-61.4864,-44.7451,-61.2209,-50.3366,-47.0001,-36.8905,-39.7117,-43.0541,-37.3906,-34.9419,-35.9113,-42.2596,-23.4371,-26.0311,-45.5383,-46.2764,-51.0904,-64.2662,-74.2020,-68.7109,-68.4719,-76.3336,-63.8549,-54.7764,-57.3965,-67.0623,-77.9683,-57.4291,-55.5694,-49.2356,-37.6607,-58.9082,-74.6789,-58.4969,-42.5485,-44.2743,-54.6010,-56.8759,-50.4255,-55.7002,-45.3981,-53.6565,-59.4252,-62.3070,-57.0330,-59.5073,-60.4165,-62.1373,-66.1644,-73.2121,-69.5272,-60.6361,-40.3671,-59.8423,-51.0178,-41.3826,-37.6575,-23.7610,-29.2884,-25.5849,-13.7643,-4.3989,-9.5800,-25.3788,-30.6074,-34.2448,-39.0251,-49.2665,-41.2379,-49.5503,-57.6038,-69.2880,-63.7237,-76.1372,-65.1111,-58.0114,-43.6829,-25.1720,-27.3935,-17.6742,-18.8526,-12.5520,-7.7048,-27.5935,-29.8850,-19.9840,-25.3210,-27.0882,-34.2361,-38.9622,-28.6676,-50.8574,-44.6372,-51.2871,-71.7036,-70.5971,-68.3616,-59.2497,-63.7069,-61.5717,-64.8701,-34.6610,-44.6083,-41.4498,-46.7135,-43.7219,-25.6608,-50.4526,-38.5987,-48.1769,-45.0050,-48.4318,-53.3142,-51.3023,-71.8243,-58.7745,-57.8434,-66.0376,-47.6958,-61.7641,-61.2146,-61.2002,-52.6049,-35.1371,-21.5374,-29.5088,-24.3569,-17.3803,-24.5522,-14.5913,-19.6792,-26.1977,-29.3015,-46.7779,-36.9000,-52.3310,-55.7756,-45.4004,-55.4055,-50.6300,-51.2231,-54.9591,-64.3453,-54.5716,-61.7643,-61.4070,-72.6681,-63.7812,-50.6329,-50.2439,-62.2776,-60.6760,-61.0389,-56.3559,-56.8876,-43.2534,-34.4455,-42.4645,-37.9609,-37.6209,-31.2933,-46.4070,-51.9913,-58.1093,-62.0264,-51.9811,-56.9231,-56.2125,-47.5269,229.8571,191.6613,191.3413,176.4014,159.8553,153.4846,132.6849,147.2935,133.9602,114.3505,106.1980,91.5491,94.4998,87.3285,76.2493,85.7961,82.7409,63.6741,51.1078,46.2462,32.6054,15.4203,10.7016,8.8676,8.8587,4.5498,1.9514,-9.7429,6.3657,8.2570,27.3594,9.5986,16.4394,34.9864,15.7850,8.3595,1.1564,14.5746,-5.8216,-1.2582,-11.1797,-16.2476,-27.8801,-13.8596,-29.6806,-40.8422,-27.8903,-41.6569,-38.9414,-36.6336,-43.4527,-62.6298,-42.5056,-44.4407,-44.6272,-42.1971,-49.2584,-34.8589,-40.6270,-29.7623,-21.1869,-13.6521,-25.0676,-11.0391,-17.5074,-34.4550,-46.7900,-52.9936,-44.3854,-51.7512,-42.2170,-57.9653,-62.3159,-54.8647,-59.3175,-51.5093,-41.0066,-43.8559,-41.4018,-39.1948,-47.8686,-28.6486,-22.7905,-13.4233,-13.0330,-17.1482,-9.4598,-19.1055,-18.5158,-23.6971,-21.1739,-27.0908,-13.9757,-13.5608,-26.3634,-30.8625,-59.5351,-63.6854,-55.2179,-50.1409,-49.9906,-54.1422,-27.2160,-11.4379,-12.9255,-13.1794,-19.1399,-25.6343,-15.5894,0.0152,-17.5711,-20.5858,-10.5916,-14.0944,-33.9129,-36.1452,-41.0930,-39.1823,-35.3940,-49.9491,-39.6939,-44.5364,-31.0938,-46.2524,-52.1263,-48.7631,-56.7575,-66.5951,-53.7383,-51.1516,-57.5219,-46.1833,-55.9482,-41.2036,-33.0078,-33.6667,-38.3592,-39.0687,-46.0736,-43.4439,-46.2442,-55.5962,-49.6153,-50.7580,-52.9526,-36.9802,-56.5091,-61.6329,-63.6315,-65.2756,-51.7432,-57.9495,-55.2105,-51.7956,-52.0421,-52.4341,-36.3070,-19.9205,-18.6102,-7.0278,-12.0562,-14.7788,-9.3528,-27.6309,-33.0167,-36.3841,-30.1767,-45.7552,-55.0862,-50.0066,-59.9891,-50.8435,-50.3911,-53.0198,-47.6941,-58.1862,-43.5207,-38.3840,-11.4134,-27.4121,-35.5674,-38.6371,-19.2247,-29.7639,-34.4214,-26.7617,-25.2978,-28.7195,-37.3657,-41.0177,-44.2447,-46.9983,-49.0053,-48.0536,-59.4261,-68.9325,-64.6761,-59.4520,-77.1325,-73.9354,-47.7702,-39.0939,-55.8927,-45.8945,-46.3785,-43.9980,-40.6950,-53.2375,-53.7352,-48.4729,-49.3675,-57.5195,-47.6175,-58.7669,-62.9446,-61.3492,-66.4607,-64.3938,-80.7681,-86.8852,-78.6258,-74.9770,-82.9295,-80.7950,-65.2927,-67.1565,-65.9040,-43.9507,-47.8592,-33.3715,-38.9601,-39.2860,-47.5759,-68.3823,-59.9418,-51.7966,-51.3727,-68.7168,-60.6031,-67.4366,-58.5307,-58.0836,-51.0810,-47.2868,-49.8019,-46.6504,-50.2332,-27.9756,-53.1207,-47.0760,-31.0404,-27.6787,-26.7085,-26.8137,-43.3841,-18.5714,-27.8728,-23.6218,-48.3664,-37.6674,-43.4199,-38.9507,-43.2102,-48.6776,-62.2728,-58.4893,-58.7780,-53.4069,-49.2393,-55.9550,-64.3460,-49.1277,-25.4103,-32.6412,-64.8537,-42.0055,-30.1971,-35.9000,-37.2802,-34.4143,-29.2704,-40.4328,-26.6534,-38.0927,-48.0514,-39.7916,-62.0661,-60.5900,-59.8244,-44.0221,-67.4589,-81.6736,-68.3670,-55.0346,-45.4467,-30.4454,-34.1865,-43.8682,-49.1934,-30.6338,-42.7195,-45.9449,-44.5727,-49.7156,-43.7436,-40.5860,-35.6374,-47.5135,-59.7001,-64.8877,-53.9597,-56.4681,-63.7821,-64.6757,-58.0295,-52.1803,-67.8638,-62.0772,-55.0292,-65.4909,-58.7523,-56.3075,-60.8569,-46.0047,-40.4768,-34.0308,-42.1885,-29.5572,-14.3427,-7.9422,-18.3189,-41.0626,-36.5198,-46.6210,-47.7850,-61.0686,-72.0175,-63.2187,-54.9378,-57.5771,-57.3362,-57.9738,-55.3953,-52.9529,-56.0621,-48.9089,-33.6112,-41.7747,-41.9500,-40.1682,-41.7328,-42.3790,-38.3620,-43.8966,-44.1777,-50.3274,-46.5947,-46.6838,-58.9947,-76.0509,-61.8277,-67.6407,-78.1989,-69.9065,-84.6296,-69.5826,-78.3766,-93.8891,-75.2903,-74.7007,-73.0650,-70.4280,-62.4443,-62.5590,-67.2881,-42.9770,-50.8662,-56.7293,-59.2439,-48.5778,-64.0321,-58.9444,-66.9245,-71.8752,-79.3859,-78.4244,-74.8173,-74.9336,-83.0812,-77.9249,-71.7506,-88.2545,-76.6695,-79.3855,-75.7769,-61.4118,-62.1809,-60.8153,-37.8733,-38.6871,-59.7765,-55.4908,-38.2640,-40.3644,-28.7572,-36.5982,-45.3573,-58.6935,-53.7412,-66.4040,-50.9838,-57.9555,-68.0047,-54.6691,-43.9562,-60.7013,-57.8178,-63.1930,-59.9831,-67.3556,-53.3589,-45.8188,-32.6302,-55.7803,-44.8665,-32.4068,-44.4823,-49.2572,-58.8298,-65.8425,-76.0635,-71.6029,-75.2721,-70.6943,-78.9615,-79.4817,-79.7842,-77.4436,-80.6064,-82.1455,-69.5597,-58.1053,-62.2236,-65.7250,-61.7874,-71.3814,-54.8800,-51.9756,-53.1304,-48.9791,-42.5799,-30.0623,-30.8121,-48.6140,-50.2710,-51.1087,-44.0098,-50.6982,-53.9935,-54.0332,-62.3219,-50.4951,-60.5118,-67.4278,-59.7677,-46.3428,-53.2466,-42.3107,-50.1739,-47.8931,-34.5085,-40.1475,-26.1011,-27.9247,-36.9361,-32.3805,-35.0243,-27.9476,-19.4241,-38.4487,-38.5187,-46.3842,-51.5645,-57.4983,-64.7343,-58.0902,-62.5347,-65.0487,-49.0090,-51.9274,-50.4953,-38.3496,-55.1202,-32.2752,-41.3648,-32.4683,-34.5288,-32.8829,-12.4747,-7.6741,-24.2066,-25.3662,-29.3156,-25.3876,-57.0563,-47.9209,-59.9625,-74.7798,-58.9562,-41.6134,-56.6028,-46.1047,-41.3012,-49.1186,-49.0721,-59.4760,-46.9981,-28.5255,-27.4583,-21.1566,-16.2450,-0.0680,-15.0605,-3.4577,-13.0896,-8.5681,-32.6329,-29.3824,-35.6713,-34.4431,-29.3766,-37.9132,-37.7908,-55.6286,-60.0405,-54.2776,-52.9370,-52.6917,-53.0998,-33.9533,-37.3329,-21.5390,-26.0874,-19.3639,-17.9509,-25.6120,-14.0755,-1.4969,-13.2777,-12.4881,-17.6006,-25.6385,-31.8060,-34.4815,-40.2328,-60.5359,-54.7766,-59.9964,-62.6699,-53.1434,-69.1946,-74.4401,-58.9025,-72.5174,-72.2296,-46.7007,-45.3669,-41.7297,-47.8953,-55.2651,-52.7733,-45.6861,-50.5582,-40.1091,-44.8880,-42.5243,-44.4588,-46.1284,-49.7059,-60.2102,-60.8313,-66.1295,-85.9939,-65.4885,-65.2309,-63.4756,-74.9928,-67.7118,-67.5403,-52.1236,-62.4684,-55.1840,-39.8984,-44.0592,-42.1659,-25.2506,-22.0695,-24.4359,-27.4506,-39.9255,-45.8448,-53.0180,-51.7470,-59.5709,-60.8667,-53.4919,-49.7784,-55.4146,-49.2683,-70.2830,-79.5045,-61.0492,-67.8757,-64.7369,-72.3952,-64.3181,-62.9113,-50.6924,-44.5274,-36.6066,-26.2281,-32.6457,-51.1782,-39.2217,-44.3340,-50.2622,-53.7165,-56.9303,-66.9232,-65.6375,-58.8528,-75.0473,-79.9244,-73.8777,-80.3700,-81.4647,-64.4924,-45.4987,-50.8452,-49.5225,-61.7173,-40.9239,-38.8819,-42.5545,-35.7365,-36.4570,-45.7529,-36.9351,-33.0034,-47.8414,-57.8846,-55.9597,-52.7345,-69.2733,-60.5877,-69.1197,-64.0710,-68.5140,-65.1165,-48.4039,-63.8055,-46.5044,-32.2697,-39.0941,-54.4908,-54.1425,-47.1263,-37.8559,-37.3963,-49.5144,-48.8301,-48.6217,-43.0255,-31.0834,-55.9460,-63.5653,-66.3486,-55.6316,-61.5935,-69.3758,-65.6420,-64.9989,-50.6277,-29.0262,-41.2146,-46.6765,-49.6596,-49.7538,-29.3778,-24.5600,-28.4786,-15.3121,-21.4586,-17.8986,-23.5529,-31.7274,-41.0808,-37.9955,-34.4718,-47.1248,-46.4661,-59.1581,-49.3802,-54.7834,-67.6474,-60.3105,-51.5717,-65.2733,-61.4944,-46.3701,-25.8728,-40.3417,-30.8037,-29.6513,-33.9369,-28.1877,-31.7934,-33.0663,-41.9507,-29.7236,-22.4913,-29.1321,-25.6252,-33.7118,-44.9831,-54.7332,-58.8863,-67.0567,-57.9528,-50.3872,-37.0432,-44.7923,-55.8435,-57.6444,-42.9984,-29.6931,-31.0393,-22.7837,-23.4394,-17.1608,-29.5562,-8.5658,-24.8354,-14.7077,-22.7260,-25.0869,-27.5599,-25.6450,-24.7047,-21.1547,-20.7563,-29.4325,-22.9452,-34.7076,-30.0221,-35.0780,-41.8242,-34.5072,-28.9522,-29.0954,-22.9790,-17.6826,-25.9511,-44.1351,-11.7661,-23.1804,-30.7292,-34.4023,-30.7558,-33.7805,-37.0546,-36.7919,-26.6048,-16.1114,-26.1746,-29.4565,-43.3105,-42.5863,-41.1514,-48.3390,-43.9654,-30.3727,-25.1953,-31.8243,-39.4916,-31.9399,-35.0741,-20.3750,-14.7451,-16.0561,-11.4491,-10.1675,-14.2741,-26.9414,-22.0812,-16.3725,-10.2153,-25.1005,-22.2200,-21.3628,-28.5754,-18.4253,-14.9430,-12.6328,-15.4304,-1.8485,-17.7140,2.4859,-2.1509,1.3463,-8.5986,0.0155,2.6442,-17.5876,-17.1911,-32.1567,-20.7465,-23.9205,-17.6982,4.5481,-8.9653,-38.1080,-30.2403,-31.6626,-43.4856,-43.2584,-45.6676,-58.6490,-55.5451,-43.1526,-39.9345,-42.2585,-38.4369,-26.6056,-14.2267,-14.9235,-2.3259,-16.6803,-12.5824,-15.2915,-11.1284,-19.7911,-5.9723,-31.1282,-12.6293,-24.4675,-24.9256,-21.7234,-29.2731,-43.0911,-33.9208,-25.4136,-42.4656,-22.6970,-33.7739,-42.1713,-45.0778,-40.5370,-49.6888,-36.2952,-31.4823,-33.6517,-19.7114,-25.9540,-30.9884,-30.1714,-27.4623,-33.1201,-42.6109,-40.9939,-46.3306,-57.0486,-52.2543,-45.1901,-45.3331,-50.4988,-45.0490,-55.3058,-52.5997,-40.5121,-21.9084,-26.0914,-24.4572,-8.5789,-16.0501,0.2480,-19.9294,-27.4159,-22.7091,-24.6388,-27.2304,-5.7262,-24.2751,-31.5360,-44.3099,-49.5645,-43.8532,-65.8691,-64.5693,-54.3617,-40.6433,-49.0809,-42.2757,-40.0381,-30.3194,-46.0878,-28.4743,-29.3358,-21.2033,-31.9374,-27.4857,-29.6560,-39.1854,-43.7828,-40.2527,-37.6010,-46.7223,-49.0173,-61.7651,-51.1759,-39.2798,-41.4324,-47.5793,-45.8081,-49.1254,-26.7567,-19.0543,-28.3527,-12.4521,-35.1852,-40.5896,-33.4658,-23.1661,-2.6992,-20.3428,-27.8178,-27.3782,-12.9130,-16.2443,-33.3975,-48.9069,-44.2077,-23.6972,-31.1260,-37.1940,-25.6650,-28.1282,-46.9015,-52.3470,-58.2828,-58.4454,-66.3931,-65.2419,-59.4123,-34.6717,-43.3285,-16.1602,-27.7474,-11.4651,-26.1959,-35.6881,-15.3510,-16.7897,-38.3921,-41.7553,-49.6731,-48.3845,-50.4099,-59.2027,-72.7046,-64.4194,-53.8456,-59.2769,-60.1149,-62.2285,-54.3702,-36.1561,-47.6106,-31.6779,-30.8010,-27.5584,-31.7422,-27.0008,-22.2232,-23.4583,-15.9684,-12.6694,-2.6377,-21.4956,-41.2504,-23.4710,-31.2984,-18.0448,-24.8752,-42.8969,-38.5863,-47.9143,-42.6712,-33.9510,-26.8656,-25.8705,-27.3885,-10.2845,-30.4383,-41.8979,-36.7695,-13.4042,-21.2961,-22.1931,-28.8891,-31.4992,-35.0960,-28.7622,-34.5904,-34.8750,-40.2249,-51.3392,-62.8699,-60.3413,-25.0865,-32.3711,-37.6838,-53.9242,-51.6952,-56.5795,-57.5895,-45.9723,-26.1033,-26.0511,-37.6374,-31.2882,-22.3421,-30.6219,-27.0757,-25.6822,-28.7966,-35.2977,-47.9958,-54.2560,-64.0345,-70.1952,-60.6699,-55.5943,-71.4069,-60.2989,-56.6982,-73.5434,-59.0294,-39.8333,-45.7827,-60.1121,-40.5995,-44.0226,-32.3381,-38.6268,-34.1008,-35.9395,-33.1069,-37.7381,-38.3735,-46.0694,-36.7239,-42.0812,-56.7135,-41.2352,-49.3005,-48.2566,-44.1701,-46.1717,-40.9260,-49.0754,-39.0981,-41.9070,-36.7783,-33.0153,-24.2719,-26.7557,-35.7174,-37.4411,-33.7596,-39.7816,-44.6024,-53.3281,-45.9272,-19.8352,-35.3124,-21.7044,-35.1943,-46.0104,-59.5226,-49.0307,-33.8831,-37.3102,-50.9309,-64.2249,-62.8828,-56.2306,-34.2512,-26.0924,-33.9317,-34.4819,-20.5595,-35.9048,-28.7940,-25.4494,-35.5362,-35.4409,-34.2097,-18.1715,-16.8583,-35.8051,-46.7413,-54.7737,-55.5931,-62.6010,-61.7687,-60.0278,-66.8001,-66.1101,-64.9063,-64.1792,-60.9870,-50.5507,-61.7269,-35.0430,-38.8642,-34.2799,-33.4932,-45.6790,-49.8882,-51.7135,-46.1642,-41.8200,-53.5886,-53.2514,-78.3484,-68.5491,-59.6668,-74.0348,-85.0211,-90.5314,-108.8237,-92.6379,-73.9897,-82.6977,-82.8778,-93.4880,-82.2551,-54.5084,-53.6290,-65.4617,-59.3574,-53.6982,-62.0807,-66.8992,-51.4726,-43.8554,-44.2013,-47.7842,-69.3922,-63.9295,-68.7370,-71.8471,-76.5577,-85.2764,-101.0105,-70.3136,-72.5394,-83.2891,-67.4321,-69.1813,-66.1188,-63.2840,-50.3539,-55.8349,-53.5351,-34.4216,-40.5848,-40.4162,-36.0153,-48.1038,-50.0612,-49.2666,-64.8388,-57.1221,-64.2399,-55.8066,-59.7314,-66.6475,-83.9312,-76.9728,-82.9875,-76.2205,-89.2599,-78.1226,-50.8294,-50.1518,-52.6770,-54.1232,-50.6440,-37.2501,-34.9872,-20.7162,-32.4524,-35.5294,-47.9787,-43.1933,-40.6319,-46.6315,-48.9484,-42.6756,-34.8451,-44.3515,-39.2233,-42.4974,-41.3618,-53.2751,-49.9105,-45.3691,-34.8886,-28.3423,-28.3996,-20.7878,-26.5883,-13.7591,-9.9589,-13.0909,-18.7026,-19.1648,-34.0054,-31.1778,-35.6945,-51.6047,-45.4266,-60.5484,-58.6308,-57.0090,-63.2010,-57.6189,-57.1685,-60.7230,-48.9901,-51.2375,-27.2884,-40.9150,-48.5204,-42.3793,-23.3443,-31.0813,-35.2849,-17.5323,-22.7531,-14.4236,-12.5782,-17.6703,-9.6768,-43.6480,-43.9037,-38.2832,-20.3680,-24.6025,-35.1728,-55.9405,-59.9341,-61.2499,-57.2241,-38.0235,-46.5209,-43.4974,-36.3883,-50.6002,-38.1828,-42.1955,-35.1109,-34.6782,-33.4324,-26.1693,-26.7104,-31.4738,-31.4542,-42.4714,-36.1228,-45.5509,-52.2692,-56.5241,-51.5435,-36.4803,-50.9226,-58.5943,-43.1702,-48.3820,-41.0810,-40.9209,-24.2904,-30.7012,-15.4745,-28.4609,-19.9795,-4.1451,-8.7175,3.9402,-15.9021,-16.5236,-11.7109,-43.0108,-51.9590,-47.6642,-39.2183,-55.7515,-41.0609,-37.1840,-25.6924,-31.8287,-36.8874,-30.1486,-36.3378,-45.0342,-49.3042,-42.5183,-34.6706,-32.0455,-45.5848,-29.8073,-23.0220,-16.4530,-9.8851,-24.4540,-39.7798,-49.6327,-35.5445,-46.3447,-36.3651,-36.2803,-59.6065,-47.3773,-41.5018,-47.8885,-72.6721,-65.9463,-63.8988,-46.6714,-44.8763,-62.9147,-41.0432,-25.6536,-25.8413,-24.5073,-28.0669,-32.3190,-24.3676,-22.3728,-18.9238,-20.5690,-27.8972,-26.1998,-42.4211,-53.9418,-42.7026,-44.2561,-43.7695,-53.2758,-30.5832,-34.7581,-42.1940,-42.6088,-25.3912,-31.8092,-5.4525,-17.7937,-1.0342,-9.6394,0.6905,-15.0226,-11.5891,-6.0411,-8.6311,-10.3523,-26.4881,-26.9461,-23.8274,-41.1721,-37.7727,-45.4453,-45.3553,-47.8642,-54.3324,-48.8250,-42.1766,-37.8988,-21.3269,-21.5123,-26.2617,-33.2009,-29.7607,-8.9027,-27.7951,-22.1432,-21.4281,-29.9908,-39.2824,-41.4120,-42.5525,-44.3216,-32.6988,-44.8633,-52.8672,-50.1988,-48.0743,-55.1923,-48.9628,-61.8445,-44.7795,-50.1082,-50.8917,-54.8502,-58.0536,-58.0249,-46.5395,-33.3808,-42.7642,-46.8318,-40.6488,-34.6579,-32.8026,-29.5561,-20.7555,-19.4688,-20.8344,-52.5563,-52.1973,-42.3326,-49.0969,-39.8770,-40.9426,-29.5971,-30.7966,-31.3526,-41.2876,-38.5425,-38.1204,-41.1215,-15.5607,-16.3712,-22.6964,-12.7800,-29.1408,-39.7218,-22.8758,-39.3281,-35.0119,-33.1043,-33.6675,-33.5194,-39.0865,-45.2432,-58.3689,-55.7103,-66.9975,-47.8814,-66.4730,-60.5261,-63.4575,-54.7733,-43.4175,-39.9365,-23.2926,-25.8599,-29.1050,-24.0505,-12.8015,-17.1013,-35.5049,-35.8684,-29.5555,-34.4457,-47.6034,-40.1888,-52.5583,-40.9772,-49.7854,-65.9567,-64.3497,-63.2754,-56.9064,-57.9473,-62.9052,-59.4586,-39.2219,-34.0655,-30.7362,-26.2750,-28.6028,-17.8333,1.5309,-9.8667,-26.6915,-36.9703,-55.8512,-30.9483,-34.3402,-50.3597,-62.3668,-62.1308,-50.7982,-52.5860,-46.9574,-48.9747,-42.0332,-44.1337,-42.6909,-62.1803,-53.4507,-38.7749,-19.9874,-10.1931,-23.6705,-29.6294,-36.4006,-15.4114,-18.7175,3.7468,-20.8317,-7.2209,-21.4573,-40.9049,-36.4953,-35.8215,-44.9231,-40.0016,-41.3915,-45.7099,-53.1542,-62.2128,-53.3859,-50.2653,-61.2186,-43.7587,-41.1309,-45.8327,-35.1795,-27.9920,-9.3135,-19.3948,-17.5918,-31.1001,-47.5737,-34.5673,-46.0810,-49.2441,-56.2315,-49.1410,-41.4708,-42.6176,-39.7356,-45.2161,-76.9868,-76.1212,-76.4939,-56.4145,-60.3494,-56.2011,-49.6072,-43.6856,-54.8403,-51.3065,-37.6583,-27.6568,-38.0106,-49.6531,-61.4105,-43.9771,-58.9410,-69.4421,-78.2062,-79.4333,-76.0733,-71.4219,-75.9076,-64.6025,-61.4681,-43.8009,-67.5967,-53.6842,-48.6661,-52.4849,-38.6575,-28.1714,-27.5709,-19.1132,-42.5773,-31.4181,-10.4570,-12.8027,-17.0870,-18.3659,-43.5554,-28.4937,-28.5231,-42.1742,-24.1598,-46.8349,-68.8762,-53.4458,-57.1979,-42.1895,-43.8259,-48.7381,-30.9943,-32.6625,-44.3816,-38.1852,-31.5113,-36.8418,-37.3848,-36.8516,-48.7657,-59.4172,-46.4670,-64.0597,-62.6571,-70.6211,-70.5916,-56.3508,-61.1624,-64.7026,-73.2678,-67.5357,-57.1802,-55.9399,-46.5019,-43.3222,-52.1503,-62.1289,-50.4988,-40.1643,-39.8162,-36.2981,-20.3798,-0.2174,-18.9051,-19.2796,-26.8752,-8.9895,-10.6632,-13.7682,-14.9500,-32.6177,-35.3963,-24.0548,-36.7653,-60.0306,-43.3634,-46.3571,-34.0133,-35.7253,-47.5295,-28.9331,-21.3561,-13.9240,-5.4863,5.4850,1.1243,0.6819,11.9581,20.3258,8.3362,-2.0035,-5.2015,-11.0984,-15.3139,-6.2571,-30.2756,-24.6134,-38.6920,-52.6978,-45.3012,-45.2227,-35.0022,-35.7075,-38.2265,-15.1345,-10.4731,-4.6995,-12.7283,-14.1547,-9.0621,-17.8740,-14.6303,-19.2408,-30.0847,-21.6505,-26.7123,-27.9742,-25.4004,-24.0556,-44.1132,-47.2139,-53.5461,-56.1531,-53.9403,-48.4941,-39.7490,-39.3546,-44.3988,-23.2634,-21.1598,-29.8965,-12.0499,-14.4268,-16.2166,-11.4749,-12.8294,-9.7957,-14.5286,-23.6843,-37.9345,-22.9583,-28.8052,-23.5766,-28.6061,-37.1902,-30.8721,-38.2914,-41.4971,-42.9510,-31.8269,-48.3981,-47.8685,-50.6394,-34.5735,-39.5304,-36.9859,-33.9325,-28.5447,-37.5548,-42.2614,-22.3315,-34.8804,-11.5490,-4.3796,-17.0978,-11.2721,-22.5739,-17.8478,-38.8869,-57.0831,-40.2633,-24.9458,-32.5768,-40.0243,-31.2922,-23.1750,