Fp1,Fp2,C3,C4,P3,P4,O1,O2
40.8122,32.1678,58.9019,63.1562,46.9113,35.0209,39.0257,43.9577,12.7794,13.0658,14.3714,-6.7454,-32.3051,-30.3369,-22.7785,-5.4367,16.3752,12.2414,3.8271,14.0047,12.5773,9.9321,14.4153,10.9530,-1.6362,6.3812,9.1461,27.1487,37.7788,3.8287,-10.7648,-4.9803,-8.9185,-4.2870,-1.0825,-19.4543,-21.6885,-7.1925,-34.1083,-41.8982,-40.2598,-31.1005,-34.6161,-8.9973,-34.7048,10.5507,26.1901,30.6533,16.5256,13.3338,14.9515,39.8732,22.1425,33.8450,61.5266,48.3443,24.6830,32.4560,11.0323,-2.4322,14.9773,28.4627,11.1604,0.6621,-10.8223,-0.0094,20.6601,34.2963,26.8484,44.5784,21.6475,35.8562,38.4064,29.4457,38.3304,42.6265,53.6517,45.7262,40.2580,46.6419,25.3781,7.7430,20.0581,7.8330,-18.5013,-16.3442,-8.6224,-12.1801,-3.9641,6.3042,18.5460,38.5043,48.9808,25.6504,40.8301,52.3501,51.8865,33.9797,53.6012,61.3056,36.0155,31.1533,45.4792,35.8782,41.0673,43.4552,23.7442,12.9454,16.1410,12.4165,11.4641,26.1562,30.2996,11.0389,-4.6733,21.6175,32.1147,35.4109,23.6054,52.7068,58.2624,56.4829,61.1511,56.9789,48.5559,32.9472,19.3357,17.2405,26.8450,23.4856,48.3572,21.5877,5.6446,-15.7908,0.7273,3.6852,-1.8385,25.3688,43.9427,60.1003,39.7422,26.7195,35.4305,28.3815,39.4906,49.9523,36.0800,23.7111,33.1596,16.4718,36.3069,27.6719,20.0460,7.7556,-2.6852,-6.5018,10.6756,-1.9406,-21.2537,6.7639,9.6294,8.1215,6.6700,-8.1580,9.0923,25.4263,16.8658,29.7460,20.5059,38.9686,52.7116,26.3893,25.3776,14.3133,6.2007,19.3829,10.3253,8.8804,7.1934,-8.7742,-12.3864,9.4294,29.9283,17.3264,-0.1325,38.0014,12.2248,15.5092,50.7238,32.4015,41.1063,66.1642,74.7033,60.0050,70.8738,76.3689,35.5640,27.1669,16.1529,20.6773,50.8388,48.6531,28.2840,19.5969,17.0059,24.7605,24.2531,32.2844,2.3930,19.2177,33.5955,47.5776,66.8417,69.3875,52.9017,45.6516,31.5448,42.2767,57.5725,25.6359,31.6286,14.8801,9.1643,8.1128,-4.1535,24.3676,40.8039,29.0150,42.8634,21.9079,26.2996,3.4826,5.9303,33.7950,68.4438,67.7421,54.2693,16.3118,21.3410,43.4411,67.5336,52.0698,20.4418,31.3180,30.0764,30.6438,40.8808,13.7535,7.1176,-2.0994,7.1413,-4.9795,-7.2998,10.9436,1.5144,-3.2101,-9.7240,-6.9253,26.9121,30.5424,33.0531,34.8035,35.7142,43.0813,49.6918,48.0587,37.0394,41.0694,22.5782,16.3675,12.2509,10.2806,5.0714,-16.8386,-10.1035,-6.3097,-0.7313,4.0615,-2.7849,27.8950,15.6397,21.8898,41.2589,67.5747,58.2253,33.8148,18.0702,34.3664,41.1608,58.1377,27.2056,13.7671,20.2561,56.5000,43.7257,4.9179,-0.3155,-7.0038,-26.6019,-18.6920,-4.8066,7.8583,19.2254,17.6881,9.1317,14.0820,32.7482,25.9742,25.0858,31.0130,65.6045,72.6585,51.0349,36.6337,16.0600,-0.3257,9.5511,4.0477,8.4329,0.6491,-2.5179,-17.9271,-17.2815,12.4839,2.3163,-14.2816,-2.9669,-1.7405,-15.6990,4.4681,-1.1028,4.2696,17.7509,9.2873,21.4282,27.2647,22.9786,29.2928,26.7936,21.9846,18.6368,6.7179,3.3924,-14.7074,-8.1083,11.5240,-4.1329,10.3684,-5.9526,13.7352,17.7431,26.2242,-7.3195,18.2966,57.3626,50.9535,48.8297,34.0319,39.5794,67.2498,62.3496,85.3875,56.1159,53.8637,49.2535,39.1355,45.0810,51.4003,28.5011,3.4421,7.7507,20.1922,14.6950,34.2653,3.4752,8.2183,3.5804,9.4670,26.6925,32.2940,32.7910,52.3626,25.0148,28.7565,27.1223,36.3084,32.2396,16.2333,-1.7477,-14.6726,15.0461,24.6812,11.4402,1.8408,1.6654,12.2800,-6.3621,0.2309,-6.6625,1.5576,20.2439,31.5113,15.3291,8.5444,8.3984,24.1693,25.7313,60.0837,58.1717,20.8006,20.1894,32.0881,22.2907,12.0038,15.5780,17.4063,1.1043,-5.2099,-4.3085,-15.5978,-14.2196,-5.9633,-10.3811,-7.4799,27.4344,16.9011,29.8043,17.9405,50.2181,47.3791,57.9875,36.8143,54.6021,21.3756,23.5152,-10.1238,0.6490,8.8959,10.4527,1.0624,-1.2522,-8.2346,15.8009,12.6971,-4.8945,8.8432,8.4269,-1.2858,37.4901,26.0581,44.2804,53.9729,45.6572,41.8516,42.0662,46.4497,44.5762,46.6141,39.7181,17.3151,7.0513,27.0969,5.4026,5.3484,-4.3685,9.8452,5.8683,3.2655,18.2353,13.3023,4.8677,18.5184,9.8684,33.2679,56.7774,71.7041,69.8569,58.3874,55.5659,52.9198,30.1432,19.2743,24.0439,5.5262,8.3640,3.8099,19.6323,12.8581,10.1052,14.3289,22.6769,26.8810,24.0471,19.8843,14.6876,49.0262,65.2829,59.3809,38.7175,63.2643,66.5348,77.0047,57.1998,65.4356,71.1741,58.4201,33.4840,31.1551,19.5180,23.4412,34.2535,17.5904,15.1486,36.5859,35.5301,11.1750,20.7683,24.4571,33.7746,50.2097,49.3175,36.6375,62.2859,47.6462,49.4365,54.5924,59.2109,46.6808,45.3859,38.6772,23.9568,15.9310,7.7358,24.5294,-5.2095,-8.7799,-5.6793,-15.9666,16.9082,11.0023,30.5520,28.7510,-1.2391,5.6774,28.5920,30.9247,36.5677,30.2525,40.0650,50.0992,31.8576,27.7781,18.2258,7.0595,8.3120,-27.0277,-25.6838,4.8850,1.8461,21.9546,-15.5347,1.5943,-0.0123,-16.9461,-2.2029,-10.5360,2.2508,14.6284,5.5820,14.2930,15.4647,15.9086,16.4183,39.2866,53.1141,51.3839,50.4673,27.6177,11.5007,21.8105,28.6675,26.9328,20.3075,-8.2969,14.1306,-6.0840,1.0577,20.3018,16.6975,28.1327,52.5398,53.4079,44.9748,23.9146,20.6828,33.5067,39.7266,40.4506,27.2169,29.6596,34.2111,19.9783,8.0361,10.3306,8.8984,0.2961,2.7163,-7.9556,-21.0458,-1.0716,24.0078,19.9427,34.4844,1.8402,27.1240,37.0157,22.5659,26.0927,9.1027,29.0790,26.0725,32.7362,39.7487,33.8944,12.0898,-12.6880,-22.7078,-2.7774,7.8708,-10.0196,18.0684,5.9401,5.1514,11.0746,16.2122,31.1556,34.1942,35.9856,51.3407,53.4842,56.1699,82.2301,87.8000,70.4742,43.8413,32.5456,20.5032,12.8500,26.6170,15.9022,7.6656,-3.4664,7.2782,-10.6010,-24.4672,-16.4660,-5.7692,11.9331,16.2462,10.1069,-13.1607,12.7172,21.2893,44.9901,51.0405,33.8911,17.0593,43.3315,71.9253,67.4251,70.8746,46.0538,34.4076,29.7509,24.4936,17.7726,29.9612,28.0535,6.9981,25.5944,32.1163,56.5312,58.1635,56.6613,45.8569,42.7249,72.3080,72.6201,78.7876,61.0161,64.4193,55.9372,42.6060,34.3446,45.8131,38.2686,45.4163,33.0636,28.4463,45.5775,38.7858,25.0980,21.1615,17.0528,31.0556,36.7708,58.7655,59.0952,48.5445,53.2105,40.9680,59.3084,81.3716,85.2383,73.4310,79.4355,67.4753,40.9002,43.8222,30.7375,19.1259,25.5463,15.4770,25.6310,24.6009,20.2638,22.4318,27.4036,15.4877,24.4234,44.1431,70.1654,74.5875,71.9896,74.0540,78.9929,63.3919,55.9515,67.8372,73.5389,74.4348,74.1358,76.5989,47.8561,41.4818,30.6001,60.1418,47.6429,29.6338,12.1563,6.5096,19.1872,43.8737,88.1085,75.1558,68.2486,78.2499,87.4407,69.4135,52.8768,87.0323,80.7853,74.6996,67.7594,68.9641,79.3406,67.5857,55.9618,45.0963,75.3096,68.4239,60.1975,60.8393,49.5520,57.5743,55.1090,48.7058,50.9698,55.2732,53.4283,39.2158,63.2118,79.3895,66.6893,59.0950,51.2744,52.5764,47.0468,51.7520,59.4112,37.8243,39.6576,39.4219,29.8040,36.3589,48.6007,46.7338,22.6442,19.8947,20.5837,47.7598,47.0152,60.7992,58.0523,74.0206,90.3239,99.8141,90.4834,76.9414,84.3071,75.5692,67.6289,59.9126,79.6695,70.5766,41.8982,33.8826,14.0528,17.4045,26.5902,33.8750,30.7333,53.6331,50.6339,50.8194,57.5709,44.4159,29.3439,47.4963,91.0453,85.0282,75.4829,71.3636,53.6641,56.6547,67.4704,59.6156,46.9965,39.2464,40.7445,34.2363,28.1791,24.9074,46.1168,30.0375,-0.6386,13.6107,8.3595,26.6581,36.0825,29.9572,60.9399,56.5591,70.6069,59.4665,62.6985,67.6832,56.0520,88.3294,71.0230,49.2632,34.2161,30.1437,0.3042,16.7772,28.9316,7.1993,10.4833,4.6021,21.8902,23.5420,19.9666,26.5652,27.4325,17.5728,21.6158,29.1313,31.4930,49.3114,55.2755,59.6075,42.1945,36.0962,34.7121,24.2604,36.4832,39.0028,43.1181,48.9093,51.3313,34.1759,34.3270,40.2681,32.7490,25.8368,22.7904,7.7255,29.2884,17.6917,29.1278,12.3478,8.5968,40.4903,42.7913,47.9110,47.7015,30.5149,46.5645,35.1966,25.0368,7.6433,24.4360,23.6183,25.9434,11.8886,-10.8135,-2.8378,13.0888,25.0863,30.8458,35.3544,40.2511,47.9570,61.7870,67.4344,46.5832,54.2872,55.2669,50.6119,32.6421,38.1465,55.1314,43.6428,32.3311,17.2001,25.0206,36.4075,28.2936,7.7862,3.0357,7.0258,44.1352,36.7811,40.1330,39.4348,42.4938,33.9485,29.6654,31.3952,48.9817,50.8677,45.9066,39.8993,19.9929,29.5127,56.6415,57.2494,49.1345,26.8665,25.7402,31.0668,6.5714,21.8114,32.2760,22.1153,25.1566,19.7781,26.7804,51.8299,54.2139,68.2333,71.5921,82.4589,88.2366,85.1306,87.8587,64.0291,65.9418,63.8954,61.0737,62.2486,73.5303,62.1142,30.1960,20.2391,6.6969,41.3010,57.3153,10.0407,39.3105,47.9660,44.8244,53.5267,48.0540,73.6054,77.7704,73.5046,51.2495,39.0812,14.5492,32.6396,47.4871,49.9614,42.2562,21.1156,1.1433,7.3639,20.7311,10.3491,33.1704,16.5412,21.0503,46.4201,54.2910,59.8128,57.7053,41.9271,60.7166,65.8375,61.0417,43.7825,52.1155,52.0169,56.7280,43.3336,50.5889,42.2347,41.6435,30.1768,23.6088,-0.9594,2.6633,16.0311,9.2238,1.0442,-7.2494,-8.9531,23.6758,52.3885,29.7718,46.1364,42.5012,49.7026,58.8326,46.9355,63.4040,81.0720,65.2936,51.8370,42.4983,43.9356,63.9757,66.9067,34.1411,5.6747,24.8613,26.8768,30.9891,38.0074,30.9911,55.1687,71.5406,72.9241,63.4104,58.9699,56.2677,49.8760,65.5907,60.2027,69.7019,92.5397,94.4097,65.5304,58.3547,55.3131,43.1660,34.4717,39.8080,34.4773,35.1301,29.7746,23.2598,8.6569,12.6110,49.0003,47.8624,59.4167,45.0976,46.0605,34.2754,35.8619,30.2438,39.3347,36.9343,-0.3285,3.4965,-18.6568,-16.7927,0.4912,-8.4240,11.5554,18.3186,-1.1484,-3.9674,-3.6403,8.4034,3.2259,-10.3179,5.2956,35.6809,43.5375,28.4840,5.0820,39.9736,28.2145,33.8321,43.2179,57.1939,40.1850,34.8990,8.2602,25.9751,37.6325,20.0510,11.3685,16.9638,2.1560,7.6283,-5.3604,-4.5424,-12.2520,-12.5425,4.5360,29.2359,38.4373,53.9409,39.6425,53.8518,34.5200,19.6461,30.9745,18.4516,6.5488,16.1190,-1.6400,18.4300,5.5173,4.4428,-4.5532,-18.2946,-8.9302,-3.4537,6.0096,21.0682,39.3105,26.3653,-8.4059,-11.2565,7.7923,35.4489,50.3378,65.4596,45.1033,51.8325,46.9675,43.6165,33.0154,28.7401,48.1246,65.9732,44.1005,39.3680,13.4897,25.0698,25.1111,42.9633,45.5110,34.6349,45.0226,59.7019,25.0104,20.9969,23.0123,60.9253,49.7678,50.9004,53.8663,48.3866,53.5168,45.6327,51.7292,21.3394,26.9831,33.9555,32.9645,20.5300,6.4501,4.3793,23.2411,-4.3208,9.5155,-2.0118,16.9953,23.1640,7.0440,31.4390,26.1206,11.0343,32.0731,18.5408,26.4837,26.0232,33.4758,51.7540,52.6753,26.1378,24.8087,24.5635,14.2719,28.8585,23.9609,-11.7929,7.2536,3.6710,29.5098,58.8581,43.6736,13.9160,38.7626,29.4524,41.2462,34.1032,49.4739,58.0813,59.3619,56.3616,76.7756,51.7767,37.6709,35.8337,1.9190,21.1567,20.8054,18.3276,26.9857,11.3925,5.4056,7.4913,7.9897,-10.3601,14.2948,3.4803,20.4627,43.4971,40.6584,20.3369,32.0917,32.0469,29.1950,32.8957,11.9158,11.2110,16.4167,23.6591,9.0687,15.1513,11.7005,16.5963,-1.5555,-14.5144,-17.3993,-4.6981,3.8504,8.0401,6.4092,21.8147,32.9365,38.2970,58.8253,21.7439,23.0794,23.2712,26.7728,30.3590,33.7781,34.9553,53.2348,6.3851,7.2312,11.6713,-19.9446,3.8723,5.6687,-9.0657,-5.5559,2.9535,10.7403,11.5555,21.4607,20.1942,40.4804,39.9251,64.3376,35.6727,44.7959,19.3418,17.2985,39.6407,33.0005,31.4661,18.5502,-1.4153,-0.6934,12.0396,-16.9483,-27.5272,1.2449,5.5178,2.1018,-7.9627,8.9588,12.9306,-8.6076,27.1750,-2.0622,17.4126,32.2530,16.0343,12.1413,10.1684,15.7581,20.0072,37.8256,30.5804,34.0459,24.7061,27.3368,12.4216,2.0521,-16.2992,10.2313,16.3658,20.9133,24.4900,-2.4802,-3.3880,25.9390,27.3815,28.2221,9.3894,13.5560,38.5311,35.5736,16.7576,12.2267,10.6203,25.8287,22.4935,0.4466,-13.2627,-15.0498,12.8277,-6.2001,-10.2721,-23.8813,-13.4290,-12.6557,6.3070,14.5224,20.4101,11.4136,18.5489,11.2848,29.2708,38.7825,25.0396,21.8997,17.7113,23.1178,20.9072,14.0895,21.7556,8.5859,16.1101,21.2136,14.8166,31.1924,11.3347,-6.8798,-15.7599,16.0257,13.5913,6.3379,-7.4360,-12.3837,11.0947,31.2201,49.6607,64.3806,46.7311,62.8966,45.4287,29.6201,-0.2779,22.2006,5.6211,8.5880,-25.3503,-8.0285,11.5202,9.3857,-8.6785,-11.8646,-5.6651,-8.1983,24.7725,40.2930,42.9093,39.3373,42.2107,50.9950,42.6861,56.5680,70.5985,47.5781,59.6768,44.6542,10.0517,18.2922,19.9379,41.1193,46.4090,28.5558,15.9511,-8.0294,9.9704,30.2722,26.6048,17.0950,28.4856,31.2124,56.5230,51.8904,46.8045,56.9319,62.3545,59.1023,47.9785,60.9088,77.0003,61.2635,36.3183,26.5106,29.0412,34.7500,12.3789,-18.6835,-16.8773,-14.5367,-1.9979,-12.8622,17.2293,32.6722,19.3909,-15.3728,-5.9120,10.5766,16.0895,12.7685,12.6123,22.6723,20.1700,21.0154,24.4093,-3.8920,-3.5822,-4.5808,-18.6104,-21.9745,-3.5320,7.3563,17.6481,-15.9925,-11.0753,-3.6686,4.2817,1.6721,11.8867,15.9841,16.8214,45.1986,43.3588,41.4247,54.5347,36.8370,25.8447,7.2677,30.7993,41.1347,38.6427,28.6164,-1.5319,11.2324,-1.1772,13.9827,-6.2767,-13.7854,26.8627,21.5512,3.1093,6.1424,2.4247,-28.6199,14.9974,34.5961,34.6063,8.4993,8.0301,4.6728,32.4699,30.8053,29.3966,21.6363,21.9448,16.1316,13.1606,8.2002,17.0951,12.5277,15.4756,10.0563,1.5094,13.3612,17.2492,-0.4252,18.4195,27.9601,27.4878,16.4539,15.9280,18.8203,34.0488,37.6826,8.2697,17.9155,23.7730,21.7376,2.2377,-1.6913,-1.4856,1.3383,4.4932,-6.1233,-9.8197,-16.5264,-6.0719,-5.7718,1.7880,5.7592,3.9587,3.1783,4.4788,14.2977,21.3813,57.4145,36.6382,25.1759,4.1486,26.6138,24.4246,5.0482,28.4971,32.7698,27.3848,23.8421,8.4545,-8.0552,-23.4324,-22.0075,-16.1801,15.0159,10.6811,31.2339,38.5026,34.2736,25.2008,34.1395,68.3555,49.5193,70.5448,48.3802,51.1228,51.0980,23.9256,-1.9697,1.8341,-9.8618,-10.4293,16.6066,-1.7704,2.6969,-0.6498,19.7736,43.2526,43.1497,38.7804,24.3003,48.1876,53.6453,53.8235,57.2933,61.1157,56.4401,36.5849,55.5319,36.9909,43.5779,41.8018,6.8739,11.8385,21.4139,50.7646,30.2275,6.3405,22.2324,27.0389,12.0860,12.0498,17.0843,20.3158,15.0926,0.8159,-5.1200,10.4024,27.1723,35.4048,35.9642,16.1683,16.6569,29.5574,13.4170,5.6443,5.6706,0.4290,-11.4428,5.2056,16.8954,12.9083,27.6727,-13.8034,-20.6096,-20.5649,7.4672,37.6030,22.2272,17.1691,17.2812,21.8526,43.2639,29.4657,14.4910,15.3757,27.2154,25.5958,5.3128,22.2181,22.3781,1.4120,-23.7972,-41.4359,-19.1657,-5.2813,-24.0844,-12.6586,-7.8135,-18.6733,-16.7294,-20.8102,-12.0091,-11.9904,-0.5091,31.2420,35.5772,7.3303,-19.8800,-9.3572,12.6920,24.4766,6.0812,-4.0889,-18.6613,-0.9271,-22.5639,-20.5675,-26.6389,-18.1740,-23.1403,-10.1092,-15.3237,-5.1558,1.7584,24.0558,15.2534,11.7435,20.6285,32.7571,44.6170,36.9787,32.9239,45.4603,54.1638,21.4576,17.7738,5.6047,13.2608,11.0796,-18.2131,-6.9299,-21.8737,-18.0621,-17.9388,-12.4604,-19.0719,-13.5745,-4.3589,5.7612,3.1573,43.7316,22.4072,19.5214,23.8043,42.6472,28.0644,24.0705,23.1868,44.8600,24.5156,21.1176,0.5301,-22.0203,4.4384,3.8262,6.4332,-2.7870,2.4411,24.8512,15.8602,32.9337,41.6294,60.7886,46.4155,54.0833,26.7126,40.9440,50.2212,66.6916,50.7159,65.3611,36.1333,20.8995,-0.8112,-20.4542,-3.8074,-8.8797,5.4573,-28.3645,-25.7275,-17.4986,-0.3308,3.8057,18.8575,11.2311,10.8817,5.3665,28.8498,14.2078,42.4423,28.7615,27.9792,30.7401,28.7374,16.1491,7.1485,40.8229,20.6515,7.8439,15.1196,11.7764,4.2204,-2.2435,9.5909,-11.9228,-14.4887,-8.4509,1.6735,23.9756,25.1628,60.3163,49.6953,48.0198,49.9573,47.7656,59.9054,39.0040,35.4149,50.5825,63.3532,65.9034,31.8190,23.9061,2.5129,30.8390,16.9589,20.1221,19.8378,14.8363,-2.0443,-4.6099,21.3245,28.4666,34.9227,32.6397,22.5181,23.2026,37.8780,44.5407,25.1144,19.3233,40.6464,44.7034,31.1553,18.2010,20.8844,-3.2066,-15.1072,-23.8124,-30.9776,24.3935,16.7182,35.3309,22.5745,21.1625,41.1171,40.2844,41.4462,55.1307,32.9454,68.9049,62.8826,51.3649,39.6964,39.6670,36.9042,41.2902,52.2912,45.1124,19.9940,18.0832,29.4384,39.3086,36.0151,24.3198,11.7382,-5.6931,13.2422,23.6458,36.4392,38.0204,65.6988,80.0622,84.6824,68.3951,58.7456,69.1586,63.7307,34.7930,52.3664,40.1172,38.8166,21.3686,29.6468,3.7857,15.1892,11.5127,20.7742,15.8564,31.1691,18.4684,27.1330,38.4446,47.0017,48.8196,25.2761,32.6431,44.0690,64.3020,70.1926,56.9047,46.8113,45.3771,40.3755,30.3175,24.6760,21.0745,11.3878,-8.0583,-8.1144,-5.8272,15.7820,-4.9792,2.3037,14.4834,33.3695,47.6406,59.7621,63.5357,57.8878,61.3010,67.1861,64.2544,82.3535,81.9693,79.0958,67.0996,39.5102,49.8567,29.7259,39.5222,60.8732,65.4364,65.4357,40.4962,37.8155,36.8189,40.5012,57.5342,72.1611,102.6061,90.2051,76.2003,51.9381,75.0719,95.7681,97.3031,62.0253,51.8284,48.9500,60.1068,67.0341,89.2690,50.8019,51.2987,58.7355,51.7406,58.8111,43.0657,37.8966,41.0290,51.5652,55.3817,54.8613,53.3412,57.9969,71.3181,84.2309,79.9926,69.0384,62.7724,45.9309,72.1557,55.8189,69.9345,62.2519,79.4771,69.0785,48.6458,28.1634,14.0756,21.9067,21.2729,8.2413,28.6899,19.1626,20.3526,11.8562,31.1581,52.4450,45.1114,37.7192,37.3159,47.1413,73.9362,87.8759,66.5478,37.0868,37.2254,54.0578,36.7551,43.6723,51.2348,38.3366,35.3866,41.3969,27.9847,19.8850,25.2877,7.0877,-7.6614,-1.0098,8.7278,28.1513,36.2704,40.3832,33.1207,38.9419,33.4845,28.7393,26.5376,14.1074,28.6924,53.4803,43.1065,17.7565,-12.4794,-11.1281,10.1011,29.8100,23.5431,22.7317,12.2411,30.4293,45.7556,59.1652,50.6966,47.2322,67.8898,71.3029,70.8458,70.4522,77.0172,75.1936,73.8163,36.1018,54.8771,68.5855,64.2628,37.7627,32.5019,56.0006,66.9056,54.3193,73.8496,40.6411,49.2067,33.7974,42.4810,32.4150,53.5947,48.1807,44.0490,63.1646,57.8102,49.7739,48.2893,32.9999,32.9351,33.8105,44.4018,38.7276,21.8038,21.2281,44.6310,30.8564,22.9593,18.8159,24.5177,45.3569,34.6947,53.5577,31.5655,61.3909,55.6862,55.7028,67.2052,55.9548,82.9552,69.5076,71.5183,70.3085,60.7646,29.3411,21.0959,24.7233,26.7348,48.8237,48.3036,19.3143,20.5355,16.6003,25.4857,34.6595,40.9833,30.8546,56.8639,62.0156,48.7149,31.5891,46.1786,56.9651,64.6442,74.2311,49.8250,40.8813,27.8650,35.5239,18.6983,-2.7528,-1.4023,10.2239,33.1006,23.6269,26.4339,10.9032,-13.2938,10.9091,9.5243,6.1999,19.1369,30.4535,18.3381,24.4338,27.2386,38.1381,54.1255,45.2633,53.8658,64.4420,44.6299,39.0740,23.5134,9.7047,8.7898,14.6984,-9.0027,-10.9421,-2.4481,17.0569,14.2788,10.4136,13.6274,30.8119,53.6367,57.0316,34.5404,48.0117,60.8818,67.4716,40.8589,56.7456,68.6003,44.4593,21.2177,7.8097,18.0038,22.5921,25.9665,6.8986,16.5991,12.9975,-4.0181,8.8260,-14.0977,-3.9442,10.8948,15.1181,33.7755,54.7340,33.0239,47.5442,45.1905,26.4600,12.2667,50.6619,52.7241,54.2160,44.6025,28.9719,15.2874,17.3844,-1.5274,16.9948,26.7280,30.5005,33.8815,43.6467,37.5600,28.4792,46.0262,66.9276,79.2891,65.5585,17.7904,40.5879,49.5256,56.7160,29.6928,27.6615,56.9098,48.9495,34.3959,10.4149,-3.6650,-2.2449,-2.6642,2.5981,-7.3774,-15.7137,1.1629,-32.3613,-33.4673,7.5361,25.1083,-7.7924,15.8455,41.6600,21.3493,45.8446,38.6027,50.8946,57.1251,47.0105,22.8494,5.6479,0.5533,-6.3436,13.1640,-11.1083,10.0403,-7.7272,-2.5436,1.0679,26.3459,27.0669,34.0200,15.9476,18.2841,24.3391,36.6634,53.4911,52.2892,40.2160,37.6271,21.6369,-0.1489,8.8604,3.5709,12.0116,13.5741,1.9580,-15.3150,-2.7399,12.1260,13.2132,-18.6393,-21.3210,-11.0086,4.6267,34.4675,35.3886,49.6728,19.0301,28.4898,31.6459,25.3172,46.6680,42.1264,44.4546,52.0844,22.4784,16.4898,3.6569,16.0115,29.4197,30.2438,7.2347,-11.3875,-0.8116,3.7192,32.0221,46.5964,20.2410,24.7604,16.5596,27.0702,33.8140,34.7367,32.0599,35.9042,34.7443,32.9019,35.2629,57.3240,48.9266,20.6050,41.9897,29.0351,8.0630,-0.2140,-7.9127,-20.2848,-26.2567,-14.7173,0.6688,-14.2860,2.1169,1.6795,0.1879,11.6741,34.4383,29.2372,32.6363,39.4854,33.6599,53.5874,57.8088,37.7352,45.5251,20.6717,2.7289,22.6182,14.2548,23.9151,17.6884,1.0516,-0.2557,21.7694,14.8414,34.3400,40.5663,19.0774,27.1282,33.1233,31.2839,25.3376,10.1359,29.7769,28.1629,34.0041,59.4893,55.0583,57.0604,40.7122,28.2617,7.4858,-3.5013,6.9703,-6.4537,-2.9667,4.7009,14.6266,35.5233,24.1161,-3.5292,0.2532,28.0313,57.0444,47.8725,31.2082,32.8558,30.4098,60.6548,45.7909,37.4227,28.5091,16.8507,30.1468,28.3109,35.1474,39.7115,9.8216,-0.6659,5.1259,1.4513,17.3624,27.6600,34.8380,28.8430,28.0307,48.7692,65.0791,77.8723,69.3866,57.3214,48.9790,64.0656,51.1000,45.7915,36.3252,12.5785,28.3358,11.1963,20.7259,26.7773,17.8749,22.6217,26.8075,8.8698,9.4770,13.6951,17.4234,9.2949,13.4683,19.7694,19.1056,33.0979,54.5326,41.9285,32.5006,12.0796,26.5917,30.9878,37.4406,38.2503,10.5930,10.4523,22.4744,14.5565,30.0621,-10.2286,5.7333,31.0124,11.3328,14.0121,10.2634,25.0387,18.4666,-9.1072,19.0494,21.7659,50.2536,27.6256,46.7893,50.2912,30.7771,37.4073,15.3771,-3.9218,-2.3348,14.7028,23.0317,20.3656,-0.7829,-4.0629,-2.0193,10.1617,8.2344,8.4286,14.6291,26.8898,48.2729,54.1584,56.6762,57.7015,53.6287,69.5421,65.7567,56.1613,45.4858,46.1670,36.5933,11.7025,28.9873,25.9706,18.9071,16.3520,-5.7238,-13.8933,-9.9128,-6.2659,-7.4295,-21.2462,-22.6084,-9.6043,3.1715,26.5775,11.6709,39.3078,25.1798,23.6696,28.8405,33.9578,37.8913,5.4232,40.5966,31.2567,15.6935,26.7011,35.3238,53.8066,29.1346,2.6484,-14.9694,-20.8141,17.8211,29.8189,28.0195,10.6274,-18.7264,-0.7926,-6.7537,18.1353,8.8329,18.2686,27.9323,44.8736,17.7628,11.2380,2.6728,-10.2410,-23.5343,-34.7291,-23.7133,-27.5301,-18.0664,-9.8869,-26.4366,-13.3205,-2.6648,-3.2837,-0.3492,12.2138,21.2902,56.4025,37.9569,42.1852,28.5852,1.6630,20.8048,51.8466,67.4822,38.9493,23.8460,7.9790,27.9255,17.5129,-35.6213,-22.1436,-18.2986,-15.0438,-0.5247,10.5278,-0.7132,3.5579,18.9002,21.2855,20.5887,15.7505,42.4266,16.4694,14.0148,32.0422,38.1385,17.6749,5.0522,-3.6487,-11.7178,-11.1244,-19.3658,-21.7771,-13.0601,-5.8460,-4.3039,-15.7947,-11.9401,-3.5091,-0.7719,8.1690,17.1370,23.5180,21.4460,30.4394,40.3883,35.8657,21.3783,4.1466,-9.2166,35.2650,60.7103,44.1432,8.1462,-10.0284,-17.0326,-7.3369,0.9356,-6.6788,-22.2508,-7.3526,-18.8601,18.8166,-0.8613,15.5727,29.1237,27.9874,29.7703,41.9581,42.3662,59.5396,49.4892,47.5213,24.9576,21.0014,20.9750,21.3615,12.5871,10.5858,9.4886,7.9381,3.7703,2.7328,-4.8070,-3.6847,13.6111,36.3745,1.8554,-9.8900,-0.0995,29.9502,35.0931,40.0537,49.8723,28.9979,54.1343,65.8986,56.1787,43.9981,49.8128,68.1068,40.0648,28.7330,39.6209,17.1056,20.0692,34.0117,18.8782,-0.3236,19.2115,31.3350,25.4723,26.3311,24.9551,51.5348,68.0466,53.7167,54.7966,33.5324,21.4357,18.8646,30.6874,30.6045,9.5416,8.4039,6.5719,9.9529,10.6559,12.2114,-9.1083,14.9262,-12.5586,15.6309,25.1781,19.6793,56.4873,39.2392,25.1931,28.0755,30.7387,38.2790,41.3083,36.2488,24.7074,36.1119,26.5030,13.8741,-2.2213,-21.4828,-5.2884,3.7839,14.9171,18.0032,12.1079,8.7906,-10.3403,-14.3681,-31.6500,-17.2866,-7.3719,11.5978,17.2684,9.2254,15.5188,27.4484,13.3488,1.7179,9.6841,30.5077,31.2668,10.4306,-21.1678,-40.7470,-43.8811,-21.3100,-0.2955,-20.9503,-37.1914,-36.4495,-18.0056,4.8666,-10.2416,-7.9778,-0.4271,30.3553,25.6287,9.9633,16.9900,41.7074,52.4821,34.0879,39.7388,42.5569,56.7304,29.6661,42.3813,26.4304,7.5595,16.2457,0.2269,7.1652,14.0126,9.7315,32.4088,22.4735,32.7769,50.7840,53.4299,52.0748,54.8715,75.0559,62.8951,57.0756,59.0272,41.0023,25.5582,25.4444,24.7509,41.8063,15.3657,-3.7575,1.2904,7.6486,-8.9658,26.9233,-6.1927,-31.2988,-28.3095,-2.3342,3.5093,4.0371,-2.0579,1.0459,31.2057,30.2763,46.0612,44.8602,34.5379,19.2164,-11.8838,3.2409,5.9632,16.7907,4.4104,-2.0870,-25.1882,-25.9555,-5.2241,-21.8251,-26.5609,-34.5446,-19.5235,-7.3466,4.7218,-0.0748,1.1761,19.0065,45.0045,49.0665,31.1982,12.3060,4.9598,21.6689,42.4064,46.0563,43.4055,10.9019,-0.0258,-1.0227,-24.1973,-17.7141,-19.9448,-18.4768,6.5259,-11.4625,-10.1654,-6.4589,24.3671,47.0720,32.8453,39.7166,30.7781,41.8263,26.5938,21.7547,38.4839,45.4900,19.1760,18.8595,-3.4487,3.6963,28.4165,-7.1764,-11.6580,4.8687,-4.9627,6.7466,6.0508,4.0048,24.4555,2.9137,17.1284,40.4902,39.5410,20.4498,14.0176,27.7992,24.4400,45.5104,35.0781,8.1401,9.8614,13.3535,-1.6402,-2.3001,-19.1820,-7.4071,6.8023,27.7109,21.6467,25.2192,7.9726,7.4032,11.1715,21.3852,52.8575,68.3095,68.9609,47.8113,48.7542,45.4052,74.1129,51.2576,50.3449,59.3363,74.4302,53.0402,17.6799,12.5939,-19.4110,-8.9813,0.3859,8.9512,13.1477,4.8192,2.2119,-3.4479,2.2511,22.6286,12.9943,-8.4539,8.5830,7.9607,-2.9346,13.9828,11.7533,16.7952,18.8650,-7.8174,-4.6200,13.0738,19.6349,18.7668,-0.6961,-1.8008,-2.8106,0.9320,-21.7361,-20.0052,-9.0543,-4.9845,-16.5044,-17.7406,-4.5851,5.2553,14.0193,-1.0669,42.3729,22.9638,9.7396,3.6153,8.1705,3.9728,11.6820,7.3369,5.8434,2.4521,7.3322,14.4061,-5.2727,-2.7711,25.9035,21.1502,3.9418,1.0494,10.4915,47.7329,52.3197,39.6940,30.2496,26.9449,55.1947,46.9740,41.0875,14.6879,21.8293,15.1472,-6.0548,2.1754,33.1382,56.9310,26.4961,-21.7526,-9.7723,-2.5480,21.3793,21.6992,18.1482,37.2658,38.7368,40.9659,36.8107,38.6785,51.6337,76.9074,81.2004,71.6707,25.9537,31.3791,23.3906,46.2926,58.4732,26.5099,18.5324,8.3015,27.1169,24.6895,15.5596,15.0595,30.0423,53.6635,44.5710,43.9620,50.5513,47.7068,45.4398,55.0847,62.5717,58.9051,58.1269,75.7913,80.6972,59.1960,49.3146,63.0160,56.3683,46.1510,39.6668,37.6543,45.2767,35.6722,31.3449,38.3375,30.5079,24.1741,27.7009,47.1858,49.7331,53.6538,58.2618,69.4774,77.6085,62.2734,71.2865,74.3303,65.0776,34.7613,33.3503,36.6175,60.2351,70.0368,58.8982,56.9361,31.6636,24.0796,35.9049,19.7554,15.9212,8.8914,20.3568,20.8638,39.0133,47.8444,83.4281,70.9746,37.3956,22.9799,29.6740,41.7373,44.0228,41.7253,24.9929,18.1865,35.5228,15.4425,11.2423,35.7099,47.1778,42.7271,30.1036,11.3359,16.6245,5.1665,11.3654,36.8224,36.7198,34.4135,51.6282,59.9125,52.2267,54.9955,51.2654,71.9627,71.6189,51.5221,56.1917,38.4737,34.1653,36.2501,25.4086,18.7998,32.9210,25.2809,35.2362,47.7187,30.7015,24.4649,24.2338,26.0055,34.6938,29.4545,34.4736,26.8138,45.5600,40.0266,63.7939,37.9808,27.9716,18.9800,10.3142,1.4082,17.5016,15.0000,0.3578,-0.1451,1.8808,-0.8506,5.6784,31.3441,28.1469,27.6351,17.3099,43.6784,65.4842,62.0404,73.1198,25.9648,16.7621,27.2289,32.1105,31.6966,7.9630,-4.0765,10.4649,9.4473,2.6748,-27.7635,-11.4918,-11.4101,-15.5524,-5.5725,-2.0950,20.2543,23.6250,12.2680,13.8979,11.5128,33.7599,36.0160,49.2211,59.3845,58.2919,33.7714,26.2501,21.1932,9.2491,10.8462,29.0482,9.3639,-12.1928,-21.2880,-9.5892,15.9510,31.7129,10.4589,-7.4876,-2.2017,4.3182,-6.6430,-8.1911,2.3074,35.6460,36.3335,37.4844,45.4348,48.9190,36.3574,42.8961,36.7644,30.6634,15.9176,1.6877,11.1176,8.7281,-0.6128,-6.7558,-9.4822,12.6162,11.8901,7.5248,1.3704,15.0842,5.4747,5.7383,39.7655,21.6078,35.0938,47.1025,49.1233,59.1030,57.7568,32.3491,34.3270,30.7806,25.3171,29.6307,35.1321,40.3436,14.2755,4.5551,-14.7345,10.2669,41.0125,43.0722,10.5065,12.0312,38.7583,44.4699,60.8812,53.7963,49.5615,40.1888,55.2570,51.9989,46.8551,42.8742,63.2120,21.5119,-3.1076,11.4759,24.7801,14.9206,12.2450,25.7224,45.9728,48.7440,37.4172,23.5983,16.7201,24.8043,39.9072,54.3795,47.6672,38.3145,30.1790,42.9498,62.5530,75.8917,74.9593,81.8502,60.5195,57.7676,54.7624,31.5951,0.8409,15.2172,9.9056,0.5079,-16.1221,-13.9465,8.1372,21.7812,20.7290,19.9651,39.5138,55.1744,58.4377,56.8299,54.2789,33.9676,51.1243,43.5572,60.9057,52.5324,35.9434,16.8745,-9.5478,-1.2696,9.4360,12.6489,0.9779,15.0818,8.7189,36.9173,7.9979,20.5984,18.9486,22.8021,28.9956,28.4461,44.9182,41.7262,43.1019,33.9804,29.8320,38.0112,61.0266,27.3279,29.8564,35.3056,27.7807,1.1310,-10.7101,-16.6687,-24.7373,-14.8998,-14.5613,9.4759,21.5011,12.9740,11.6758,-1.8268,8.8618,12.4387,31.4364,57.5511,57.6116,35.9508,15.3548,33.0670,2.6224,-4.0920,4.9617,16.8308,16.5758,25.7295,3.4769,-14.4899,-25.4075,9.9990,11.8067,3.2875,-1.2887,11.3799,10.7670,19.8799,25.1659,29.5651,11.1431,27.0705,24.3727,9.8811,8.1290,-4.1679,2.2847,-13.2954,-8.9654,-15.2313,-0.6151,5.4483,8.6185,12.8683,11.4320,0.3076,3.9726,-3.6098,9.5547,31.3783,21.5256,45.0624,15.2513,36.0151,30.2060,15.4370,40.8915,40.4070,48.7746,40.8379,45.2775,29.1862,37.9203,28.0862,37.3233,31.9764,39.7057,28.9545,26.7727,16.9321,30.1158,41.0914,49.7813,51.7182,28.4068,16.7830,48.8173,65.2660,48.2301,40.5172,39.4833,41.7820,34.3434,27.9676,9.8580,0.7259,11.5423,10.4401,-4.7714,43.0656,45.5636,34.1131,29.0261,2.6118,6.0929,0.9056,22.1351,33.2862,34.7992,43.0292,41.1795,57.6091,25.0752,50.8522,36.9308,37.0193,52.2355,42.2747,27.0190,16.3526,44.7984,47.9921,37.8510,25.3830,42.8000,21.8483,23.9002,21.7086,34.3276,31.6912,34.0559,53.5328,56.3388,50.2314,73.3618,97.0669,89.2501,75.8398,61.9469,61.2100,62.4469,26.6041,29.7317,22.6649,20.2526,23.7826,19.7130,3.9133,-3.9822,17.7264,12.5038,13.9024,18.9213,34.2924,24.0102,30.1816,54.9355,63.8477,66.5125,68.5846,51.7615,69.5739,69.6065,69.1764,65.2087,64.3659,58.6625,39.4134,12.9511,15.0872,-14.7974,-1.7689,19.4148,15.4587,24.0600,21.8407,11.4565,35.8625,40.6423,49.7006,26.2349,56.1769,69.1392,77.4903,72.3888,50.1911,41.3731,28.8215,43.1796,36.6242,30.8143,18.3842,22.2946,22.8089,26.3425,3.0209,-24.8703,26.7610,14.8721,13.6991,38.5326,29.3568,11.8179,13.3781,45.3965,52.5473,50.3386,35.9332,14.2906,31.3509,37.6693,35.3523,27.6117,12.2586,23.1966,24.3300,19.9752,31.4091,37.7311,54.7161,16.9375,28.0950,30.8404,34.9799,47.6441,55.9455,48.1289,66.3308,66.0010,66.5531,85.1140,59.6424,71.1828,71.1572,58.9442,50.1162,48.9970,23.1164,13.5299,22.4770,11.6695,8.1387,17.1660,8.2029,20.8895,37.9530,21.6439,18.3226,19.2964,27.1677,26.3610,13.2323,40.9331,53.0942,76.1703,74.2472,61.5140,51.0762,64.5177,64.2457,42.2110,17.7377,35.8019,25.6545,35.9201,26.2791,13.8011,26.1881,13.6116,2.5328,14.3657,7.0917,39.3672,59.9132,48.8419,36.2221,48.5673,42.2316,38.4963,23.3595,53.6218,61.1660,61.9860,38.8553,21.5107,23.0378,21.6921,45.6855,41.2060,19.2723,2.1331,4.2112,16.1047,34.4573,33.3834,19.9584,18.8434,21.9471,51.5720,39.0876,7.6441,42.8294,48.7717,46.8192,48.8791,46.4266,52.2840,50.2739,39.1243,20.6897,21.2696,-5.4569,9.1392,-4.8136,2.3040,14.9682,11.4018,15.5501,27.5749,19.4729,42.2674,37.5637,47.8338,36.1129,56.6577,58.8761,33.8308,47.1108,51.1195,42.5650,50.5761,19.0253,10.8644,9.7667,-1.0437,3.4325,12.0338,7.9175,17.2688,10.3617,4.6636,-6.1281,8.5111,33.1042,40.5305,53.4657,78.9848,61.8520,59.4776,67.1703,65.5097,70.9183,49.0125,34.1121,47.9626,55.5509,70.4248,52.1736,29.9276,1.8391,12.4489,38.9723,57.4542,56.3594,62.1629,52.0374,57.8569,51.5911,37.9351,44.5835,58.4599,65.1825,82.7137,74.0618,45.7279,39.9249,58.5448,72.6134,66.9803,76.6894,85.6607,88.1720,46.9430,30.1865,20.2949,35.7060,30.2095,45.6864,47.2736,55.8625,62.9016,63.5147,57.1473,66.5890,76.5265,70.7774,68.1894,47.0582,47.8314,49.5963,52.9021,66.3265,42.6944,41.7802,34.4056,29.4539,11.1667,6.1017,35.8075,33.0401,32.1459,28.5420,15.3191,27.8244,18.1368,4.4037,23.7770,32.2245,49.0018,46.8784,64.0933,70.2285,44.6450,25.2361,24.1527,13.2863,27.9740,42.8553,17.5286,-8.5129,2.9077,33.5623,25.5030,7.1234,15.2674,27.1217,15.9102,30.1386,33.9336,64.3991,80.8421,72.2851,47.4762,54.0996,62.1701,58.2183,51.4400,69.0549,56.5575,50.1434,50.3745,48.3063,4.9513,36.4382,27.4603,27.4121,8.2399,-10.9231,0.4497,3.4870,18.9993,27.5329,18.4608,28.6630,38.8649,57.7104,62.8522,57.8276,46.6870,67.4011,62.5718,61.6466,46.4528,57.7138,62.6884,46.6684,57.2804,48.6283,58.0529,53.7538,34.8090,16.5775,27.6128,18.4845,46.3207,43.8655,39.3543,51.1051,71.5306,65.4253,61.0864,63.9429,73.0404,73.5427,56.8073,35.7297,46.4424,33.0965,28.6666,1.8737,11.0725,9.7498,4.7291,15.3858,33.6005,22.7154,13.5479,33.4695,27.6027,60.9953,63.4854,83.7877,78.4163,78.6894,86.1193,92.3635,73.7506,64.9965,77.3383,93.8129,100.1590,63.8503,45.8423,45.6012,28.9071,16.3540,8.2861,19.9077,37.1648,40.5525,19.2794,18.4858,22.2300,41.8493,26.8464,57.6161,62.8174,67.6105,63.7261,68.6594,48.7295,59.5381,56.7447,81.4495,89.8824,71.1839,55.8890,42.5187,11.7111,27.5038,34.3588,36.9509,28.7816,30.0049,22.2553,29.0517,42.1881,43.4932,51.3380,60.7148,72.0815,69.2855,68.3938,94.8423,73.2712,53.9199,49.4432,62.9335,67.3381,63.5016,52.1041,42.1188,26.8577,39.3495,33.9579,39.8903,35.6998,26.5930,23.4569,32.3606,38.9374,36.9789,64.6399,37.6930,30.6141,48.4267,51.7448,86.7385,60.9726,60.9380,37.9899,6.3971,33.8511,27.4074,37.8490,6.2308,2.1342,-0.9362,6.7776,11.6311,-0.6046,-13.7197,27.6802,48.5526,42.9959,24.9734,36.8730,48.1900,37.4115,48.3607,56.2041,58.0957,83.0047,61.1839,44.1754,35.0915,43.0169,33.6538,40.8259,20.8511,44.6616,17.0394,27.9023,10.3215,-13.5133,14.7944,35.3211,56.7152,52.6823,52.5852,48.0572,38.5069,48.5991,71.2578,82.8211,51.7485,42.0265,35.3779,45.3832,43.5375,10.2233,19.4925,34.0866,17.7598,7.0777,7.3246,25.3250,28.7405,33.9836,18.0155,25.8486,35.2258,43.5219,27.4482,43.8142,50.8919,22.6992,46.3090,57.9046,68.9548,79.8912,80.9824,55.5482,56.1889,52.0610,54.6205,39.3177,51.1587,47.7502,34.9630,26.2231,26.4966,23.3080,30.5144,23.9992,51.1096,49.3668,67.9457,41.9633,44.1572,64.9795,66.4318,88.6782,72.8018,57.6286,61.6884,56.8013,55.0577,62.3114,48.7453,34.4856,7.1117,-25.9688,-6.7398,8.3678,17.7055,27.7693,29.6012,1.5158,6.9338,31.8472,55.2529,78.6207,62.1125,78.2122,68.6033,66.9719,62.9230,65.1194,35.3070,45.4474,44.3089,8.8357,-18.8321,-35.4221,-32.6335,-1.4136,23.8045,9.4944,3.0690,6.7458,33.3925,44.4361,44.8429,54.8862,46.5499,58.3599,47.1211,34.0245,46.4920,45.7410,41.3699,35.2125,23.8577,14.8757,-2.0693,3.1324,3.0912,3.1629,2.1370,-9.9191,-10.7595,-31.7969,7.6319,26.1928,31.8759,14.7405,26.2141,57.7090,61.0452,41.9711,44.4752,52.9238,40.7600,52.9994,50.7214,37.3724,48.8467,22.1113,1.6166,12.8149,2.2550,8.5935,1.1130,-17.3301,15.2505,29.2098,15.4172,11.0665,15.6602,26.0659,26.6758,18.1175,8.9180,17.3004,32.3981,46.8957,23.2293,39.3942,51.9729,9.2740,11.4883,-2.6445,6.5924,21.2214,35.2047,11.9203,2.1911,1.3046,11.3451,6.1443,12.8919,25.1306,28.4771,29.4140,20.7634,49.6954,40.9190,29.3239,52.1588,84.1790,59.2764,58.0072,47.7557,24.7337,21.0800,30.8041,17.2264,11.5842,3.2354,5.0207,8.6191,-17.8461,3.0913,8.3626,18.7448,9.4536,45.3359,45.3027,57.9921,39.6864,38.2366,46.7388,51.8991,55.9165,47.1923,42.2368,41.8574,36.2601,26.7748,21.0992,31.9031,12.7727,2.0544,9.8024,25.5085,61.5442,30.6322,30.0386,25.5295,36.2133,49.4741,42.5251,53.6632,48.1710,54.0519,61.4709,48.7207,59.4603,87.4264,99.7887,70.6872,35.6528,17.6609,19.5368,15.5434,10.4434,13.2380,20.3085,31.6012,42.2138,43.5722,46.3131,59.7465,81.7834,60.1774,68.7874,83.2137,86.8920,91.6431,61.7943,48.1966,72.5855,84.3383,58.0655,56.3051,39.9161,66.2733,43.8911,31.8760,13.5970,7.3974,2.2749,22.7588,41.4251,43.4449,41.5570,39.0358,75.7846,78.6485,79.4722,61.3265,73.0685,75.4073,82.0487,46.1496,27.1494,51.4721,65.3568,64.8187,49.4383,59.1636,37.7471,33.1916,25.7405,5.0653,12.9694,16.6428,31.3765,26.0797,29.5457,36.9618,52.1068,62.9582,46.5366,58.0574,68.0331,62.4866,63.9861,34.6741,47.9133,51.6098,45.5517,29.6681,26.4120,27.6235,22.9372,30.9914,19.9786,12.1883,11.2545,-1.4072,15.5678,32.7193,51.1976,42.9769,20.6632,47.1280,55.1918,52.3629,41.1058,39.2141,43.3197,33.9993,34.6950,23.7940,5.5135,9.5094,4.8806,-5.7346,20.4912,18.5537,2.9749,7.7770,-17.2536,-21.3022,8.8035,41.7930,32.1772,28.8925,45.1087,41.0299,59.4785,41.6486,40.4381,24.5366,45.5996,41.3483,39.5667,27.7057,8.1336,10.6751,34.7425,8.1746,20.6436,-1.3174,-10.8448,-1.0124,14.4318,16.1811,6.6443,19.6312,12.9061,43.2526,37.4787,27.9155,59.9276,60.2160,52.2437,37.3412,36.6019,50.9689,82.4128,49.7455,50.5226,51.6967,55.3835,32.9360,8.2893,12.8590,12.6453,25.0325,34.3948,45.1815,56.2917,67.9320,49.2834,24.8682,41.5551,70.9264,52.5519,51.6432,42.9056,37.3122,51.5941,57.1471,39.9935,15.5155,17.5054,1.4749,-2.0884,1.8765,1.8958,3.1866,-5.9110,10.0571,15.9891,27.1951,13.7077,8.0892,17.3372,27.3845,44.5984,27.7607,46.5259,54.3100,51.7038,41.8290,16.1189,42.7527,57.9655,63.6046,53.8095,35.5959,35.3428,42.3560,14.0622,40.7644,55.2929,51.9600,48.8166,51.9637,55.8968,49.2328,48.9606,55.4782,94.7725,92.1238,77.7585,70.8055,62.3873,73.1264,65.8233,58.6896,57.0914,50.4759,47.9972,32.6893,9.5707,33.3460,23.3286,37.6962,28.0917,29.8066,32.0415,38.2042,38.4969,59.9012,62.2277,67.6852,74.8296,69.1837,55.2626,71.5352,64.9665,66.9737,50.4535,35.9522,48.1831,45.3242,55.9690,55.4586,78.1920,51.6354,37.6388,30.9049,34.3391,40.6982,37.5996,45.0106,50.3086,65.6364,84.8652,87.5734,114.6718,107.1500,117.4610,90.8307,79.0722,72.5066,97.9954,75.5890,55.9347,54.4756,53.9985,80.6785,64.8371,68.3013,47.3113,42.5725,36.6125,30.1017,38.6314,53.2025,56.0958,60.0310,45.1627,34.2698,27.6497,36.9854,50.2398,54.9550,72.3623,55.5843,39.3994,29.9643,30.3102,36.3342,43.3294,43.3917,59.5959,22.4431,-4.2775,-2.6047,5.9197,30.4342,42.1762,55.2412,37.9241,73.5235,72.1903,84.0910,70.5563,57.1954,62.8860,62.8007,55.1177,65.4680,45.3911,26.1641,29.6834,20.8337,18.5193,24.6862,27.9951,34.2014,19.3219,-5.4962,5.0117,17.2368,32.3834,36.2830,30.5035,47.4198,52.9673,65.2116,61.4390,70.9758,57.2253,35.4959,55.8021,51.6998,45.6620,11.5587,21.7226,18.1666,28.2060,14.5310,21.5372,27.5327,27.8193,9.4113,-2.3934,18.3155,32.4477,35.2267,34.2800,48.0758,53.9474,46.4092,56.2711,63.3531,42.6708,46.7824,34.2219,33.8069,40.9158,54.7911,44.4633,41.3423,0.4195,2.5158,-2.0426,22.5045,35.9395,28.3736,21.2620,55.6120,48.7208,30.5437,33.6047,41.5604,40.2426,57.1274,65.5961,66.3389,40.3892,49.2854,74.6787,79.8386,74.0815,49.3079,35.2359,37.4101,43.9062,19.5609,22.1476,13.9671,19.1261,24.5763,18.8225,16.3142,29.6650,39.2859,45.1179,41.7817,52.6000,59.7719,52.6395,52.3275,29.0181,70.4828,73.7772,44.7778,26.7794,28.6966,9.9223,24.8724,12.1672,-2.2519,-10.2645,-25.1178,-8.1665,-21.5493,-1.2367,13.5090,11.6369,7.3147,28.0929,39.6646,47.5054,71.4250,78.6453,58.9536,51.3579,19.9251,4.6650,29.1468,24.5542,36.4086,10.2754,-3.4605,-7.1587,0.8236,-11.5743,-28.0618,-9.4965,6.9473,18.1639,13.7548,24.4513,30.5077,29.3176,21.5603,24.4422,32.1927,51.8096,70.0697,55.6229,48.6970,24.1065,46.8200,29.7137,16.2921,22.7661,31.5493,7.7829,-10.4116,-4.5271,-27.5711,-15.9350,28.6383,18.8586,20.2809,32.7850,31.5984,42.9553,32.1828,48.5633,54.9759,44.0792,60.5897,46.0589,37.7445,28.9325,38.1862,31.6007,17.9246,4.0581,7.1619,13.7421,16.1419,11.0813,6.6087,-0.7425,12.1388,14.2922,8.4396,22.3596,29.7929,26.3362,47.4172,39.8254,46.7274,41.7663,43.2165,56.2977,39.1767,30.1772,17.3653,13.2453,4.9254,10.0815,3.2248,12.5839,0.6510,-8.7981,12.8949,-2.2558,-7.4671,13.1550,38.1331,41.7473,42.6402,20.8506,38.5338,26.6466,39.5358,47.6077,28.1334,29.8562,25.9845,43.3133,27.2830,26.0939,14.6719,-17.2507,-29.2861,-10.1458,30.2590,30.5944,42.8315,6.2493,16.9833,24.4143,14.0652,17.7502,53.3454,47.3645,73.2166,62.4251,69.7224,52.7870,58.6819,66.2421,81.9136,79.5485,53.6697,18.5364,-4.8438,17.5527,33.5152,52.0847,43.0791,27.8039,38.5952,54.1606,31.3925,35.4612,35.2483,57.8946,50.6728,39.4018,68.3858,69.5882,86.1927,79.0464,57.2863,37.7720,54.7750,51.3627,68.5444,51.4008,55.1491,42.8718,45.8415,34.4169,25.6607,36.0470,12.5823,40.5362,52.7342,51.5816,40.8795,30.3229,46.1468,46.6678,26.3468,33.7513,20.5581,30.5385,25.8712,23.6346,12.9172,35.2622,15.1601,27.4059,8.2095,-28.9998,-18.6726,-3.5197,-17.0603,-11.6947,-19.7121,2.4671,11.5219,18.4185,10.8222,17.9184,10.2980,-11.5646,15.8956,21.0807,54.1783,40.6549,44.9326,24.0388,14.0508,24.2450,-4.7683,10.0512,8.0309,3.8330,8.2001,1.6910,-12.4314,5.0847,10.7379,35.7160,49.7017,61.7067,59.5302,26.0268,60.1037,78.7246,86.3074,86.4563,77.6042,54.1992,86.0528,44.9908,39.3165,38.9545,27.9766,33.5985,36.2733,28.6636,41.1903,42.0115,25.5796,28.0575,29.5694,10.7883,40.5792,44.6019,51.4812,73.3008,70.4159,65.0910,51.2520,61.3597,40.6759,44.8995,44.3825,37.3929,29.8118,27.5410,38.4950,1.2109,11.2847,4.1358,-0.6925,2.5411,0.7763,-0.6761,29.0884,23.7451,13.9962,21.3596,18.6304,32.2404,17.2344,7.9207,29.2455,47.5304,47.3110,66.0513,45.5026,25.1953,37.5143,20.6018,12.3437,9.5282,25.8504,34.1146,20.6307,13.9964,30.0374,36.9254,27.6574,12.1070,17.3227,62.0560,65.0185,69.3811,78.7518,65.2854,61.2166,46.2564,40.5842,8.9490,10.5187,35.4644,20.8961,37.6989,24.1094,24.2906,15.4185,28.6579,22.8046,4.8709,-10.3070,2.6758,17.7863,39.3565,33.8203,49.0901,39.1552,49.9259,55.2397,45.7256,42.2382,58.1072,49.5142,52.2295,36.0061,40.7564,36.3040,11.7570,28.7310,-1.5626,19.7028,10.1744,9.5105,7.7216,26.8267,18.1369,19.9227,50.0542,59.8802,48.5132,33.9338,36.6536,44.9465,69.7224,79.0804,60.5642,40.8341,28.6674,41.9578,37.3265,11.4015,17.5711,21.7024,3.8660,1.7674,17.4253,23.0786,10.4242,32.4527,17.8729,5.6155,40.8670,37.3893,48.2141,31.6281,57.6551,65.4428,54.6538,60.4631,74.6525,74.4602,43.9737,37.4812,15.1678,51.2655,61.1955,56.3763,17.7702,6.2623,24.5471,24.8683,25.5953,36.5402,43.4274,47.3917,57.8540,47.2577,31.2756,15.6458,32.7170,49.3672,34.3592,19.9485,2.4482,8.3158,16.0966,13.1529,14.6808,23.1949,12.0248,9.4136,-5.4854,3.4516,-8.5276,-14.7673,0.6648,26.9457,10.7052,49.9976,26.9886,58.8431,56.6719,57.9949,61.7807,69.5490,60.0579,56.7403,52.5417,51.7428,45.0839,42.1502,15.4319,26.5367,15.4116,15.8034,33.5793,26.9732,4.8951,14.0070,10.4642,24.9769,37.8540,26.2988,34.6963,38.7380,35.9645,45.7328,52.1219,48.4121,45.6113,62.9366,17.3366,-6.9024,-2.6011,10.8756,14.4415,44.4338,15.5430,5.5550,18.5556,2.6277,20.9989,-7.5416,-7.0663,14.7798,18.2273,35.1329,40.2917,68.0165,71.9802,56.2523,36.3503,29.0634,39.7842,49.7995,53.8823,40.1158,28.9618,36.4433,20.7879,26.5062,15.2201,24.2686,21.3621,30.5181,18.6907,1.8654,5.9722,4.1101,20.1605,25.4178,48.6700,25.9012,21.9856,28.4399,33.8856,25.7362,17.8928,34.2289,28.1559,35.1209,14.0465,-11.3587,13.0856,9.8915,4.3578,4.1553,-2.3234,23.0057,15.0986,27.9616,4.5242,11.0335,30.3221,36.1614,36.1476,44.5371,54.6326,41.6972,35.7416,63.0752,65.0903,51.2522,15.1348,10.2429,27.6893,41.6237,30.2999,2.5644,-10.3069,-12.1918,0.1171,28.7265,2.1584,9.1472,-3.2175,-6.5296,-21.9621,0.6366,19.9109,18.8078,15.0231,25.1834,45.3300,31.4579,14.8831,16.2422,17.6472,-1.9088,-4.8036,-8.5893,-4.3900,-0.8439,-4.9027,-22.6540,-21.4568,-18.7907,-10.0493,18.8223,7.7382,10.3623,27.5474,30.2080,24.3180,38.9287,40.0159,20.7340,10.4987,33.3459,25.8151,25.8973,31.2145,41.8623,48.2991,12.0533,6.9020,-39.9382,-51.5625,-25.7029,-2.1647,1.2602,-5.0544,6.3560,18.6497,18.0234,8.2969,26.7703,49.7682,37.6109,24.2727,49.1004,39.4068,37.8803,44.4388,10.7143,6.9064,-14.4009,-12.4396,-22.6539,-12.4700,-2.1337,-4.9307,0.8507,-2.8889,-4.2466,19.0795,17.6239,13.7122,5.5451,8.0734,31.2857,38.6864,22.4731,20.6818,29.1298,7.0638,1.4232,24.2971,17.1053,7.3063,-7.3709,-19.5671,-2.0531,7.2874,2.6322,-17.7624,-8.6522,-3.4286,23.9389,12.0279,13.8491,22.3574,8.6263,36.9022,34.9853,35.6558,44.4638,35.6702,45.6825,51.8283,47.5584,55.5944,32.3337,3.3331,0.3924,-14.4254,-9.3320,-2.2093,-1.3805,7.1745,27.2887,30.7730,24.4069,8.0789,-4.6917,15.7981,32.9091,50.9867,55.2562,35.8153,27.8793,44.9156,48.3448,43.5058,36.4924,21.7400,6.0258,-4.1998,0.4035,-12.1679,-14.6980,-10.9594,-7.3560,-11.3398,-17.7348,-14.7152,-14.2717,3.7579,11.9984,10.8426,4.8313,13.5823,13.1839,17.0263,24.7419,32.5639,55.9876,26.1742,11.0105,34.5454,23.5169,23.4002,19.6149,36.0669,25.3603,23.1686,17.8399,10.2675,22.5950,35.0747,31.5997,41.3470,55.1431,27.4789,24.8860,22.4636,35.6336,37.2663,31.1830,15.3214,16.8110,29.2784,23.9125,12.0332,-3.0905,24.0901,11.8313,-2.3683,-10.9502,-16.3167,3.5616,-14.9279,1.3515,26.0036,17.9420,10.5345,20.5239,13.4801,18.2268,30.8620,53.3626,61.6558,48.1676,53.8239,49.6794,69.3214,52.6528,49.4773,36.2732,17.5541,22.8183,27.4655,5.6862,4.4319,5.5331,32.8355,51.1900,13.8490,-1.4096,13.5675,29.9932,37.5025,46.5804,40.5283,43.3580,61.9797,67.0562,56.7026,65.4174,44.0904,33.1257,31.1189,9.8515,45.1460,49.9101,37.9288,-3.6898,8.4503,20.0213,28.2588,38.4259,48.4067,60.9450,57.4284,49.3842,53.4561,67.2160,57.5004,66.0424,77.1448,68.3750,73.7673,68.1584,65.4626,52.9572,55.6256,28.9371,15.1193,3.7399,23.3311,37.3434,32.7422,12.1881,24.5986,31.5073,34.2850,51.6011,32.5383,36.3765,65.1295,71.5297,54.3466,33.2622,31.4615,51.3179,49.2019,38.4275,42.6740,35.8866,14.9508,-10.5229,-13.5417,-8.6983,5.8469,14.3974,9.4244,0.2758,11.5744,8.8775,14.3619,5.6674,17.1899,39.5350,36.9986,61.2707,47.9475,31.9924,31.9606,26.2200,44.6053,23.5631,25.1977,-3.7359,7.0602,0.0823,8.5553,2.1041,-4.0785,1.2128,-11.6690,-21.3780,-10.7083,13.3061,13.1735,19.8073,40.6815,20.0417,41.5803,31.7567,29.6878,41.6506,36.4871,19.8001,5.5219,16.6604,17.0180,32.0494,1.4566,1.1948,-0.0329,0.4970,-4.3856,-7.9679,-6.5202,6.2132,25.5706,28.1723,21.9841,37.0297,37.7656,42.6186,37.4193,54.1873,46.8472,47.4850,24.2579,7.6660,3.6108,26.9627,18.0380,2.0812,1.2396,-6.8135,-17.5044,-34.2238,-22.8278,9.4538,3.3992,6.0612,20.9331,6.5804,6.3234,23.1947,20.4682,4.0315,17.9336,32.3052,58.7377,53.9212,46.1713,15.6866,25.0487,20.7352,26.2096,0.5447,32.3779,37.2744,30.5302,33.1325,7.7410,22.9683,28.8052,37.3464,60.3722,43.3093,25.5730,34.0570,37.0013,45.8994,61.7796,54.2907,46.0900,46.1182,41.4084,32.9035,40.5421,31.7695,28.6592,11.6324,19.7110,3.5771,7.9270,20.0892,5.9603,8.5284,16.2889,28.6622,36.7550,43.1914,54.3757,58.5967,73.8958,59.1377,62.4398,82.5828,54.1581,45.1104,44.7116,64.5182,58.6938,51.8515,25.3752,6.8589,4.1362,13.5310,23.1782,9.4205,9.4345,-9.6987,4.9381,12.6672,38.8973,68.9836,62.5359,33.4362,18.9887,45.7669,61.4977,64.1354,49.9122,55.4529,50.2035,43.7192,58.2993,40.9216,43.2690,39.8291,36.4004,43.8809,30.1954,15.4004,16.2663,9.4381,-12.6317,-3.8664,39.0722,53.6456,56.5141,43.0907,43.5037,55.1042,65.4149,50.4011,55.0893,65.4661,52.1346,45.9420,60.9345,29.9515,-1.0335,1.3954,28.7159,22.4288,2.6897,-9.1440,8.6137,21.6796,34.7420,-2.2162,17.4906,19.9494,25.9215,43.8233,51.1261,62.4708,73.1372,48.3517,48.1917,33.9441,28.9553,55.8738,52.8464,36.8213,29.4335,19.2340,22.5048,16.3444,11.3148,22.0019,15.7464,32.2386,39.7961,41.3482,42.7968,36.5373,29.1125,34.4141,29.6899,31.6344,29.1830,28.1738,21.7465,18.8022,21.5481,26.3037,27.4840,31.6855,26.9373,3.4646,-10.1936,22.2858,28.0913,29.2770,22.3759,24.3026,48.7458,40.1883,44.2314,32.7542,37.1868,41.2175,34.7990,53.7306,55.0623,25.8992,40.2219,27.9534,17.0401,26.3730,31.0658,39.4636,40.3379,-0.3227,11.5676,5.5456,3.3222,19.0070,14.4840,23.0944,35.5641,29.5289,45.2146,34.2261,26.1497,42.3995,63.2141,68.9411,37.0354,23.6154,36.5463,35.2069,37.1536,31.7290,8.9141,29.4918,23.7179,43.0861,37.5832,28.4360,10.1718,6.9712,13.8757,27.0127,35.9242,31.2982,11.6476,29.9315,22.1262,45.8487,49.3203,42.4027,66.8111,55.5968,58.3792,53.2890,29.8928,31.5984,12.3241,11.9223,-0.7925,5.3318,13.4579,14.5456,29.3994,26.8924,30.6089,60.5536,32.7040,34.7994,67.9584,71.0956,70.9747,71.5131,75.5458,66.9524,72.5079,62.2957,24.4145,26.2600,52.4514,26.4730,26.7310,16.5943,20.0131,10.5586,20.0963,-2.7445,9.2761,18.4630,23.8574,30.4034,22.5658,59.2100,80.2837,57.5116,35.9996,44.2906,65.8815,72.3351,54.1298,58.8520,67.3024,72.2314,65.8869,57.7018,35.5759,18.9868,24.5346,33.7800,37.1651,7.2809,0.9345,11.7347,33.8809,48.0392,23.8867,47.8395,37.7560,27.7317,39.0172,31.9788,47.1635,46.9745,55.8097,80.3790,59.2781,53.3796,41.0191,39.3096,30.5423,30.8929,29.2328,23.4314,16.3376,33.6004,22.7154,13.8845,56.6470,42.8224,36.6635,25.7088,50.1837,35.5114,59.6756,35.2952,69.6932,77.9545,55.0492,43.0278,38.7792,18.2226,22.4572,25.8750,28.7085,24.2741,3.0369,17.0995,23.0664,6.1148,10.0940,24.3824,18.2698,45.2356,73.9809,72.3884,48.4813,46.1883,58.2273,71.1462,67.6811,30.8719,41.9734,51.7977,50.3595,38.7649,8.4228,12.7495,34.1834,30.9192,-0.9005,-11.5371,-13.4802,-0.4031,2.6441,11.2413,16.9333,36.8620,44.2558,25.8271,21.0171,30.8992,61.6491,42.2742,40.4310,10.2237,-11.0580,4.8453,20.9445,14.9140,0.3022,-16.7627,-11.7320,0.1120,21.2859,13.7712,-0.6577,-7.7785,3.8672,27.6637,44.0751,23.9653,18.7172,47.7316,53.1795,42.8159,40.8012,37.9126,35.4087,39.3923,24.2829,31.9221,21.1535,28.2538,12.1822,12.7451,18.4816,22.2375,16.8786,13.9228,15.7232,3.1889,7.9590,27.0221,25.6621,25.5391,38.9550,30.0241,11.3212,21.7568,20.9905,24.0737,33.5933,44.5375,18.3490,0.3508,17.2758,26.3204,45.4616,38.9469,54.2022,13.3931,7.5013,19.3220,10.7588,13.6427,18.7330,46.6518,54.5760,42.0048,59.7558,69.6938,62.9684,26.1565,29.8959,25.6552,43.1280,51.8173,36.0269,30.5379,32.6542,22.7836,7.8433,6.2403,7.8359,16.1662,8.7431,12.8622,10.9857,17.5786,2.1806,25.1799,34.9383,33.9421,36.6016,23.2224,41.3876,39.1171,48.1092,44.4407,32.2496,17.2461,18.1536,29.3711,25.1540,-4.1234,-12.0296,14.9471,16.7808,19.2803,23.7830,36.1973,46.9525,22.8909,41.0775,54.8359,41.8015,34.4604,28.9343,22.3763,13.0865,50.9363,41.6435,44.3459,37.1333,38.4438,41.5069,28.7498,54.0683,37.2293,31.8812,35.6898,37.4884,44.6068,60.2063,44.1915,37.2692,42.2347,24.2249,34.7425,64.7940,61.2724,73.9475,50.4726,32.2207,38.2214,67.3691,56.6396,36.6664,26.2898,27.3412,31.8330,17.7151,20.1434,19.3328,2.3357,-18.6674,-15.8416,-25.7711,-9.1485,24.4130,2.0540,16.5841,26.8484,43.1263,17.5191,28.5049,30.2808,46.5931,44.2166,68.5703,31.6133,24.7517,23.8073,24.4227,20.0435,3.5648,-1.2102,-28.5653,-19.7405,-3.2766,3.9346,6.1630,-0.5194,33.4188,23.7860,11.0254,12.5425,24.6967,12.5071,34.8862,58.5811,58.8504,51.3983,53.0038,65.0004,31.7982,25.6010,44.3492,32.6587,34.3291,28.7653,46.5104,18.9435,25.3815,0.9171,20.0177,37.3628,40.2423,37.4662,40.2442,38.0592,64.3389,77.5607,50.0315,62.2317,50.5460,46.8718,13.6907,15.4791,25.5211,32.4087,10.0996,2.4567,12.6805,42.1989,24.9646,-9.1662,-24.2337,-37.5687,-13.0997,-3.6757,3.7358,20.7864,17.9524,18.0334,23.2713,21.0350,24.3985,31.4256,35.4329,22.4538,45.9822,35.2776,39.3849,8.0954,-10.2088,6.2535,13.9633,23.4426,15.3126,-17.0377,2.8026,1.8515,-12.6301,-15.2125,-13.7170,13.8361,36.3959,35.1505,15.8262,18.2035,6.8268,50.8595,59.0164,58.0843,24.7557,26.4974,12.2276,7.5683,7.4290,-25.6773,-14.7113,-16.7690,-17.6842,-22.3383,-23.3307,-19.2621,-4.2181,-9.1180,-33.0720,-9.8222,9.4689,26.4330,47.0491,20.1579,14.6644,39.4503,35.8518,33.2162,-1.2253,10.3135,20.2318,7.3155,19.3441,3.7268,28.0126,3.5103,-2.8900,-15.7579,-1.4290,25.6119,6.6968,12.8359,30.3933,20.0675,37.9856,32.6429,30.4623,61.3147,71.4377,46.2934,30.7045,30.6590,43.8472,35.7611,-7.0141,-31.1756,-23.5113,-14.4875,-18.6795,-25.8164,-19.2685,-17.0008,-1.6026,-1.9487,4.7403,19.6118,17.9547,27.8784,11.1867,30.0389,64.7601,55.7839,62.5439,45.6094,62.6501,36.9037,23.3893,39.7569,49.3463,35.6255,23.5855,6.8449,10.1541,14.0518,4.1708,4.9819,17.0323,23.9552,3.7768,10.0167,27.7916,38.6480,41.0433,27.5802,37.0984,32.0737,50.7582,44.3446,13.1521,12.4928,20.9510,15.0444,8.9711,17.0743,20.5891,23.3791,19.2633,18.3048,-3.2223,0.9747,-24.6972,-16.7314,7.7733,12.0139,16.9039,15.3900,1.1826,18.7952,36.4786,47.1084,32.1205,27.8363,32.7266,29.3593,39.4879,18.2424,28.2142,9.0827,2.6110,-3.5698,-5.9490,-23.9650,-20.0758,-27.2473,-12.7692,2.3691,0.2033,7.1394,11.3771,6.5376,12.6714,5.7222,17.8687,27.4064,39.4040,10.2140,44.6822,34.1457,19.2510,10.0401,14.7797,-4.0807,-17.5948,17.9969,30.2559,36.7049,17.2323,22.3521,24.3447,14.3903,30.2039,11.2451,10.8019,33.8877,57.6968,43.8424,32.0432,32.6162,20.8771,33.9172,39.1569,23.3869,-3.1398,-30.0617,-17.7115,-5.2017,-17.5013,-28.6023,-22.0742,-34.3563,-26.5436,-15.0757,8.6910,13.8911,-1.1531,15.4184,32.2773,40.9872,27.9062,40.0891,27.0258,35.0521,22.9935,23.9515,13.0617,26.6133,19.3853,13.8935,3.0269,-3.7842,1.1229,-7.3397,5.5904,4.7542,-12.2501,-5.4138,-10.5807,8.5240,10.9316,18.6998,32.4593,38.8085,45.4245,31.0081,19.7046,34.4275,7.7878,3.7318,13.3031,7.1401,1.3392,-30.6397,-37.4718,-37.7241,-7.5971,-9.0137,-30.9094,-34.1350,-16.2374,-1.2039,7.4667,-11.7706,11.5924,9.0214,10.2972,7.8347,26.2181,36.3809,55.0226,57.2548,50.2968,26.2538,33.1423,39.6308,47.2890,22.1486,6.9176,8.0549,-3.5864,15.5099,5.7241,14.5615,12.4173,30.0529,21.7789,-3.2753,1.6203,34.4998,78.5167,79.2737,70.5675,62.3753,38.5576,48.6340,34.7545,34.4708,22.5465,32.1007,7.8219,12.9977,30.6524,25.6846,21.6849,26.6414,24.2871,39.6769,28.1478,34.9270,29.9062,32.0167,23.8868,47.1257,58.4423,60.7972,72.1735,77.5532,74.5103,46.1357,57.8479,58.4462,58.2122,37.2166,22.7319,10.7190,30.5849,23.9196,28.9899,-1.7308,6.9866,9.4442,-1.7991,26.1102,39.7298,28.4813,27.4844,13.8794,32.8763,22.5812,34.2432,59.5187,49.2745,45.5567,46.8424,50.5911,29.3128,14.9349,33.0205,21.1593,8.3657,3.1912,-2.5194,20.8606,-4.7806,-10.4343,-12.9177,-19.5924,14.4416,30.5682,23.2868,24.3075,37.6510,45.5961,31.6352,6.9792,13.7046,18.0258,14.5393,7.6346,9.2370,-8.1820,2.4841,14.1293,-2.3056,29.9374,7.8526,-5.3717,-2.0388,1.2788,-2.6811,2.2021,-15.8540,32.6169,25.8436,31.7876,18.8187,44.5713,45.3384,55.2797,44.9702,11.4466,21.9640,21.2549,10.9094,16.2682,5.3886,6.5986,2.0954,0.3946,-3.9548,13.9574,9.6493,-5.4664,13.5740,21.6377,34.1463,30.4975,32.4621,43.9340,60.5544,54.2674,50.1834,55.3226,35.9209,-8.4546,9.0889,18.5743,24.6581,22.1154,-17.3106,-18.7054,-1.7505,9.1542,18.5592,8.3817,6.1097,22.0957,19.1541,25.4787,31.4081,35.7242,66.4743,53.7006,56.8975,39.6161,35.5831,29.0151,30.0912,7.7906,20.5445,45.2535,48.9754,35.3249,32.6028,-1.1340,14.9167,0.2933,8.2691,0.3019,18.0445,36.6043,26.9421,38.3148,17.9656,13.9551,42.1708,34.4473,23.6307,16.6934,22.8102,7.3172,21.5165,34.6750,46.6301,28.4033,16.5873,11.9768,0.7129,-14.1060,-21.6584,-3.8537,1.2371,16.3627,8.8754,20.9203,44.1892,54.0472,30.8966,27.6371,8.0716,19.2007,35.2070,38.1739,22.4270,17.5384,17.7789,26.6731,16.5373,14.2066,9.0229,1.2054,-10.7468,-6.7397,-4.7332,-24.8835,-10.8180,-14.3516,-11.6511,-14.4476,-6.9213,-6.5317,-20.9851,3.0075,7.3684,15.3190,17.7824,23.8583,15.5123,-20.9655,-26.0747,-16.0322,-20.1933,-13.5988,-31.0463,-38.4687,-24.0740,-37.8957,-41.3965,-58.3594,-48.7192,-51.3356,-24.8890,-8.4680,-7.1292,10.5264,7.1382,-1.2889,-5.4718,-18.8670,-12.8149,-15.4064,-7.7510,-7.3203,-16.6077,-4.0890,-6.8819,-26.4840,-26.6226,-24.1900,0.2443,-19.1656,-3.6994,-18.4791,-37.0434,-17.2843,9.2065,31.7402,19.7424,-5.4442,13.6567,37.2321,56.1188,31.1447,46.1613,32.5265,17.7247,39.4444,10.8322,14.8235,0.5306,14.0188,-3.9763,-23.8969,-27.3852,-22.0395,-22.9532,-33.1566,-22.5361,15.6046,3.9841,9.8730,8.9469,31.3852,33.5092,18.6970,14.3425,16.6338,25.6945,33.3305,14.8609,4.7818,11.2293,29.6667,10.1340,9.9228,6.2312,3.2997,-1.6639,15.5178,13.8760,8.6681,-3.5358,-9.3520,16.9360,38.7992,64.7312,50.3059,36.9686,11.0540,43.4990,53.5678,43.7982,-4.2293,-0.3160,25.6117,20.1577,-0.5627,13.0027,5.9383,-11.3931,-30.5804,-36.6361,-25.5352,-8.3412,36.3372,37.6944,28.2981,16.7036,10.9692,6.9195,31.7041,35.9611,65.7129,60.3645,53.3304,34.6787,42.0275,5.8675,29.5856,35.7238,44.9631,19.9588,-2.2087,11.0737,32.8928,30.9303,29.3431,30.0132,25.7457,50.1761,36.8145,35.4744,57.6544,48.6020,55.3722,30.0014,33.2965,63.2721,58.2272,68.0615,65.1229,40.9780,67.8124,36.6351,38.7285,40.8757,32.1338,30.1401,13.0400,13.3344,24.6385,28.4940,8.7346,20.9693,20.2619,34.0481,61.3065,50.3927,51.0727,61.9173,68.4089,62.6149,58.3643,50.2498,55.3299,48.9965,47.9897,51.1345,45.4646,57.2337,24.5925,20.2205,31.0556,42.9618,40.5027,39.5361,29.9137,31.3825,53.4818,26.8094,49.1406,47.4105,58.1840,76.6158,53.1207,37.6731,37.3113,56.7654,66.1662,36.2428,24.4568,20.4863,19.1785,42.1787,28.0375,31.9751,47.3349,27.0254,13.9867,8.8291,-1.0336,26.4412,44.3665,54.6093,61.9571,44.7236,44.2442,57.5314,69.6626,59.3132,34.1090,32.4337,42.0954,53.7300,47.5136,47.1136,37.9632,62.0520,44.3567,14.2256,12.3475,15.2669,29.8566,27.2082,20.2843,-1.1432,16.3991,23.8964,34.9517,29.7229,38.7491,40.8032,57.8265,76.0971,69.7955,70.1472,69.4094,48.9065,38.3238,19.0454,34.8372,12.7575,12.1582,16.1881,9.0056,6.0312,-13.3964,-7.7169,6.2988,-3.3333,34.9134,35.9715,48.1830,29.0553,20.2541,15.0864,11.1647,47.9986,59.3588,37.7784,29.2939,26.8170,20.6398,18.1783,8.0023,5.8478,-6.0466,-1.8805,-6.6117,4.5070,22.8472,9.6331,29.9350,19.5840,28.1493,13.7060,52.6380,46.5711,64.1328,70.3743,78.2549,54.7562,17.9063,23.5242,35.7860,39.4238,32.6393,43.1929,44.4418,11.6852,19.5908,23.7867,16.6339,4.9622,9.5971,11.8832,18.3321,29.9252,21.9204,31.4358,40.2237,41.4367,36.6121,34.4355,63.6124,42.0576,51.6875,52.0825,48.7337,51.4099,19.6295,19.7882,3.6669,7.2823,-0.6934,5.0834,-6.9808,-9.2938,-1.2349,5.9450,25.1528,28.3643,42.3787,39.5109,56.5749,53.2689,73.3623,88.7566,78.2930,72.1280,54.0292,53.1416,45.3544,44.1816,38.3424,45.3254,46.8843,33.8406,24.6493,39.3151,42.0141,63.0565,56.7868,58.7221,64.6085,77.0391,82.2577,78.1187,52.2094,55.5585,83.7915,68.3503,75.3549,84.7406,70.5278,53.6405,29.9879,33.0366,42.7368,69.9255,66.4665,66.9633,55.3891,47.2407,33.7143,50.3281,31.7080,39.3043,50.7406,70.1169,63.3038,53.9057,87.4154,59.5087,94.1881,105.9017,95.5999,67.2563,41.1347,56.5455,76.2528,72.3899,59.0140,64.6185,57.0672,48.8879,50.9896,36.7169,29.8240,72.8019,62.2718,33.5309,69.9021,90.0464,97.3089,101.7285,88.3368,75.7294,89.5139,100.7239,90.9260,64.0544,80.1023,60.8921,53.2787,52.1258,65.1186,30.7406,29.1094,33.0548,31.2000,41.1461,53.6433,30.5700,40.1814,76.2252,52.1327,60.8064,54.3452,41.9718,48.9535,48.0332,61.6750,56.2747,85.6534,72.0062,64.6651,45.0401,37.4206,48.7844,41.3668,31.3175,1.7736,7.7588,22.5121,22.9589,36.6193,42.9716,63.7720,56.0536,39.8805,54.4050,81.1569,94.0875,82.8681,56.9180,52.6332,45.8092,64.3812,61.9796,43.9508,48.1849,48.7499,40.6769,19.2913,8.5190,19.6721,27.5340,42.1097,39.9559,17.4649,18.6259,18.0070,25.6687,31.0551,39.9516,44.0803,54.7440,73.8411,85.2515,64.4711,65.9958,66.1066,77.5419,77.6414,64.2414,48.5447,36.8630,33.8011,22.2816,6.5858,-4.5309,-7.8832,2.3816,20.1069,31.6980,46.6100,53.4111,62.7640,60.1291,75.3266,73.4835,59.5812,71.6094,62.3872,67.2939,65.7247,62.2820,62.2588,39.4606,55.0817,57.8107,44.4545,21.1056,32.2537,18.7318,2.6095,11.3236,22.6576,37.3683,29.6496,22.3505,24.3766,41.3132,61.6814,60.4037,50.5774,46.3303,52.6146,53.7488,30.3182,34.5464,25.8301,21.9447,27.7005,19.4247,16.2270,7.2577,-9.0772,-1.3590,6.0515,38.1477,43.2888,47.0285,38.7241,42.9562,61.3767,51.8961,43.4301,61.8573,54.4598,60.6716,89.3938,59.1964,43.3082,49.6738,57.5249,51.6471,63.8809,33.3548,5.7369,1.6096,32.1762,32.9230,26.1239,14.6999,24.7469,40.9309,30.1035,25.6564,38.0683,54.3213,60.2829,75.6222,72.0094,57.6928,46.1015,51.3112,30.8790,5.7212,43.2379,22.5321,43.0321,25.6854,36.8560,40.0254,30.0709,22.1267,24.6029,27.0813,9.6209,5.8258,-2.3887,19.4415,22.1809,38.2630,14.1065,31.7917,42.2862,39.9050,23.8421,48.6263,33.9065,10.9003,-13.4957,-12.1041,-11.6521,10.9133,-8.0311,-8.9975,-6.0478,2.1123,13.0250,15.3028,25.5798,49.9351,71.0396,77.1998,83.5700,84.7351,76.7617,68.4172,70.0782,43.2789,37.6449,66.0866,79.9683,59.9831,36.2170,37.6099,14.5030,18.8138,8.3792,6.2933,17.3070,37.5947,41.9515,45.2902,28.5211,67.7964,65.0482,79.4914,81.9509,50.9364,69.3821,51.7582,73.2392,70.4272,52.3685,51.2467,41.7210,44.3145,37.7273,20.0670,16.8098,10.4888,8.8873,20.2183,8.9278,35.0747,24.6344,33.5538,40.4301,47.8041,47.3051,61.1188,21.3141,7.6832,13.5232,14.0355,14.6611,19.5289,21.1701,18.7672,3.7216,6.7689,14.2658,9.3233,13.5873,21.4700,16.0318,8.4585,27.2197,18.0673,24.0705,11.3896,14.7902,10.6864,21.7874,31.4826,49.0074,67.9317,63.5503,38.9533,37.9873,40.5108,31.1016,27.5230,37.4615,28.8013,51.1192,25.5615,15.9132,39.9105,32.7544,6.9056,-1.2470,-11.1543,32.4074,42.2820,45.3102,29.6675,45.7465,38.3602,54.6011,56.1489,70.4054,66.2668,57.8065,45.4699,20.2699,-1.3931,-2.2353,21.9576,40.7119,45.8281,22.9952,6.0309,-1.9655,13.6983,39.5277,33.7445,37.4376,39.0188,47.8737,58.8636,71.5688,66.3229,68.9956,77.8504,68.4183,74.4163,68.7684,53.7581,54.1685,42.4314,39.3312,32.4144,21.5284,30.7208,41.9863,29.3428,45.7958,55.7823,42.9059,52.6453,37.1817,51.1867,54.0272,47.0803,57.5283,77.8831,78.1682,76.8986,89.9335,60.2362,43.7694,41.0717,38.3748,24.1514,38.5098,49.7743,50.4706,42.9230,54.7218,57.1811,56.2020,21.2357,17.8077,37.9635,42.1176,50.9834,57.0061,59.7703,58.2303,57.2339,63.6617,53.5687,77.9882,41.8826,30.4214,35.6606,62.1377,46.6864,28.1002,24.2464,-17.4337,14.9127,26.8240,52.1591,25.7613,24.6789,43.5817,42.7834,40.7453,32.2654,38.8500,52.5579,75.1167,75.1280,68.9282,80.4605,75.7074,68.9744,67.2233,69.2073,46.6089,32.6325,34.3582,19.9807,26.6045,10.3787,16.9772,33.0082,32.1910,4.1227,38.6667,43.5823,30.7587,31.4237,35.8347,35.7364,34.1611,40.4605,49.5114,32.9778,41.3978,44.8994,34.9794,21.0266,12.8515,6.0112,12.8601,4.5996,33.3239,18.6655,14.8678,1.0797,10.0889,0.2978,29.8869,34.8094,61.9239,42.3388,38.9643,57.0784,51.2121,42.3012,66.6287,30.5899,19.9728,23.8385,33.5308,44.9150,15.6501,5.9322,-4.2646,13.9830,18.3209,-2.2194,-9.2651,-9.1364,-2.6289,18.0713,9.7298,26.1401,39.2485,19.3337,20.7703,8.5571,32.6229,47.5734,45.7925,46.2043,35.5138,13.7710,18.5017,5.7862,6.6030,-19.5615,6.7733,-0.4655,6.2648,13.0874,-17.3937,0.2203,12.7590,54.2068,58.0122,68.8507,42.7335,53.1832,61.8885,84.3850,65.4376,64.5744,38.2651,52.1723,44.5346,46.5683,50.6040,54.1000,23.3022,30.4990,14.9346,29.4879,24.4491,30.6691,5.4214,13.8777,-1.1754,-0.3795,3.9599,18.9087,29.5456,43.0183,43.6226,41.0437,47.9775,43.0736,39.8961,17.2831,24.0139,11.5427,35.0573,2.9630,-7.0324,14.5905,1.1894,13.2599,-3.4672,-21.0244,-12.4992,-30.8387,-3.9985,17.7801,34.5691,31.9853,29.1980,6.7530,26.2278,38.8842,29.4777,18.3165,13.4424,39.4250,26.1619,33.9493,8.9681,-12.9576,-11.8411,-15.6505,-26.7678,-13.1077,-6.7370,10.5118,5.7235,-5.9681,-11.7709,0.5556,26.5989,21.4071,29.3257,35.0266,23.6057,18.5827,6.3139,3.6244,11.7426,-1.7255,24.1708,16.2478,13.5039,-12.9513,-10.9946,-1.3650,-4.4446,-3.0888,-12.5233,-10.1655,0.9304,19.5369,38.2864,26.4187,4.0810,14.9958,32.4563,18.2688,17.7721,20.6782,31.4591,19.2930,34.1978,29.4330,10.1179,27.2229,22.3884,15.8477,11.9187,9.2274,6.9307,-7.6406,2.7661,25.9104,16.1513,22.8226,47.5332,55.7204,69.2316,42.8054,36.6737,43.9319,56.6483,60.5079,51.0950,46.3934,25.7901,24.4022,29.8412,20.5782,12.9924,23.3995,-14.6600,-23.2041,-17.1839,-20.5851,-9.4970,-3.6943,14.5742,26.9649,59.9768,51.6021,22.6656,21.3141,13.2549,11.9526,7.9599,6.0278,25.4653,49.7181,22.9684,-23.0722,-17.0947,0.1156,-8.2539,-9.1636,-41.0367,-37.9135,-24.3376,-17.5868,-21.2377,-39.3859,-11.2708,15.4912,9.3504,20.6873,17.5403,19.7756,25.8245,38.8758,44.2519,40.5858,39.3770,4.8437,5.4751,16.1910,-5.6029,-10.1191,26.2973,12.2758,7.8174,-5.1209,0.6366,-1.1773,-10.5915,-2.8570,-12.4332,-3.2068,3.9324,2.1468,20.7225,7.0116,21.8713,8.4702,37.0088,31.5447,28.4680,29.9250,29.3244,29.6558,34.5583,38.7358,34.6267,2.5387,-16.0922,-10.8377,-29.2575,-21.4448,-6.4912,-4.4980,13.3626,14.5852,22.6716,28.7773,40.5110,25.7091,10.8833,36.0965,50.8422,64.1098,65.8441,23.6041,29.6231,22.7804,2.6244,6.3401,-0.9523,-16.9511,-8.5761,-4.5845,-6.2614,18.8023,33.7059,12.6667,3.8421,7.3221,26.8065,24.4337,46.7504,38.0265,38.1353,38.7052,47.0970,38.3873,23.7227,24.3841,33.4192,25.1004,31.5862,1.0589,23.9813,17.5222,13.4412,25.3677,15.4738,4.0928,0.6954,2.9130,17.1801,37.4073,27.6398,28.5508,32.7718,39.7101,34.3607,13.6524,2.8535,25.7648,39.1869,32.0448,16.9247,4.2078,0.1419,16.3939,17.8801,6.9134,21.9097,13.4893,-2.2783,-12.8398,-5.7848,-10.6563,18.6836,28.8158,42.4959,38.3139,32.0261,34.9092,37.8870,58.7290,66.3210,43.3838,52.2827,46.4634,27.7346,23.1841,9.0336,2.6459,-9.7032,-18.9051,-13.3628,-13.0480,6.9051,35.9881,30.3118,12.1332,12.7780,40.1673,25.7137,29.8245,14.7181,29.0007,42.0585,52.5752,35.7463,33.2882,30.0159,24.8758,18.0877,16.9912,40.7080,62.6531,56.0249,43.2735,11.8351,21.3499,28.1543,48.7516,42.2269,47.9369,53.7732,54.4800,69.1889,32.0375,38.4439,57.0185,54.7830,60.5524,58.5731,27.9729,12.1648,43.6933,35.9751,25.5024,21.6017,-9.7856,-16.2080,-3.3705,-4.6266,-23.7330,-9.2920,7.7619,7.7466,3.4848,7.0416,25.9959,39.8856,32.1125,18.0835,28.4790,47.4853,43.2486,27.5874,56.4103,47.4051,40.4836,20.5480,17.2615,10.0305,15.9821,7.3861,-15.4762,19.3343,28.0916,27.3354,10.5488,15.3606,7.0426,36.3579,37.6494,42.1920,27.0064,33.0909,38.7540,46.0487,58.9348,74.6633,48.8127,25.1229,26.8014,14.5840,31.8953,16.6553,10.5424,30.9010,34.1137,36.8278,37.7876,22.9452,17.7095,24.4671,37.3467,37.5346,49.9246,84.4958,78.9353,52.4738,55.4115,32.9452,44.3237,53.0177,57.1792,47.2729,24.3167,32.0753,13.0522,7.3669,-9.2581,11.5042,12.5384,32.3614,27.2873,25.6078,15.6305,25.7971,37.7545,55.4014,38.5669,56.4585,71.7484,64.0618,71.6918,51.3862,56.7877,55.8727,57.8255,48.5175,31.6938,22.1987,22.8529,40.4163,22.2020,14.2429,33.0283,37.1105,39.1012,35.2315,46.0503,32.9593,32.2243,31.3061,44.3550,52.5509,44.5847,57.2169,56.3691,69.0678,69.9308,35.3433,15.5737,0.8028,6.3430,-8.8842,-4.4728,11.0328,13.8866,18.3325,15.0816,20.3437,30.5957,23.7337,27.0095,22.1423,19.1896,32.4518,51.4877,14.2021,-4.2357,14.4818,17.0684,50.6289,42.7672,10.7190,-15.1561,-10.7771,-9.4655,-9.8562,-22.4233,10.9862,-8.8128,-25.9698,-24.2027,-18.4735,-8.7101,26.3085,8.4565,7.9937,23.1911,5.1325,13.9585,28.7695,20.4426,14.4201,21.3368,10.0048,-15.9958,-30.3601,-23.8226,-30.6221,-13.6537,-18.2569,-21.5386,-23.5535,-26.7326,-7.4533,10.5858,-6.3529,5.1798,29.3913,45.1175,40.0480,16.9812,20.5246,43.7773,50.0190,40.0683,7.2176,13.5343,43.1566,31.4270,16.9305,3.2164,-3.0598,0.2816,-9.4201,-3.8106,21.2543,4.4585,-8.7840,-7.5901,1.4903,-5.2878,18.8704,32.5111,27.4987,26.8710,32.4013,34.8085,35.0159,36.4129,41.5607,34.9148,36.4480,3.7680,3.8534,14.5958,-4.9794,0.9807,7.8777,4.1137,9.2829,2.3991,29.3949,20.9670,33.8604,19.6207,27.8104,17.5910,20.1809,21.0463,24.2106,26.6194,24.4024,32.4349,-7.0464,25.5828,38.3927,63.7092,41.0422,20.9735,17.3068,-2.4131,9.0152,18.7610,14.1816,25.5249,16.6170,18.7663,26.5820,9.0680,13.8070,37.7562,64.1012,78.8573,65.8007,60.6073,68.4181,74.0214,74.0084,78.3519,78.1668,57.8188,49.6146,68.1109,54.2079,38.9560,19.4360,17.8085,33.0411,9.4655,2.7272,34.0512,50.8292,26.7026,49.1674,37.4475,57.7377,70.8018,60.0552,64.6400,59.3904,71.0236,68.6595,44.3163,33.0625,28.0906,25.0713,4.8439,19.9189,22.0593,20.1482,7.3530,5.4423,-9.0241,-18.3875,11.9318,0.4971,16.9271,15.0505,35.2034,28.1661,41.1332,68.2286,64.6481,46.2339,16.9688,21.1335,46.9013,37.2506,17.2815,26.2445,50.3047,25.0638,8.5743,1.3094,1.8135,27.4664,39.2913,31.9204,40.3530,56.6938,81.2436,67.7391,57.6398,32.8315,70.2908,77.8976,82.9902,79.0409,50.9361,51.7027,30.9877,36.3243,3.1183,-8.9194,2.6398,10.0428,3.1048,0.9011,-0.5445,-8.6365,32.5233,41.0997,44.4861,28.8663,34.5078,26.1585,43.0544,39.2593,51.7310,59.4228,67.9089,63.4145,53.7308,40.6007,33.4197,39.9045,11.7354,3.6911,13.1461,7.4747,2.9016,6.4638,-29.8475,-0.8190,-19.3794,0.5744,16.5348,18.9898,13.3008,22.2078,13.3194,14.5835,24.6920,25.7134,37.5865,53.6494,33.3200,17.6919,-1.0968,-8.3423,-17.6946,-19.2246,-16.8788,-12.7466,-12.8748,8.9205,2.5773,-24.8024,-39.9071,-0.5998,21.7815,5.3987,-4.1192,22.4435,12.6100,14.8708,5.8606,-0.0657,4.3089,11.3418,-2.0216,-18.0334,5.5173,-1.6703,-17.5189,-22.5318,-30.1029,-16.4708,-32.4169,-6.3283,-11.3337,-17.8681,3.3678,6.4333,4.6463,1.7076,23.3130,16.4417,50.8355,39.3944,37.5875,47.5376,48.9628,50.3334,57.1618,47.0013,38.4190,19.3279,15.7968,7.2209,16.9527,7.1870,-3.0913,11.0994,32.3963,23.9384,13.6634,15.2185,27.0450,40.4760,42.7586,55.8677,54.4508,74.3480,64.1050,74.7033,87.2409,88.6762,75.2064,68.0376,28.1182,20.1028,26.4246,24.9476,14.9826,17.1194,23.0493,5.8108,-3.5291,10.4668,20.0567,18.6516,17.5556,24.5881,16.3056,12.8700,14.9758,16.8438,21.7978,36.7022,26.0491,27.5510,28.7557,37.4512,40.4614,27.0539,-3.8333,2.0994,9.6178,12.7838,-20.6140,-1.5703,8.0265,6.7689,10.2025,8.0246,17.1802,32.4934,23.2407,34.1423,13.9779,18.3002,39.4819,45.3873,35.5647,23.8721,9.4439,19.2349,17.9889,29.0811,16.2264,26.5821,25.8472,28.2548,10.8614,-1.2256,37.8784,41.9239,58.4860,42.5527,26.2499,23.6473,19.3510,42.8793,63.8537,68.6498,41.3319,57.1381,63.2880,49.7946,29.3785,30.8072,18.3602,52.1541,48.9818,22.9074,19.5449,26.2794,32.3313,13.0276,6.7650,26.5299,29.9727,29.7393,32.2131,26.1651,25.8564,15.9994,30.7777,35.3198,37.0095,47.6758,48.6187,24.0702,43.6128,23.1576,11.1821,-1.1902,-0.3239,20.2810,4.2239,19.5536,15.4911,14.6255,6.6360,35.9158,28.8521,29.3588,32.8864,20.5222,16.0558,28.2754,36.7704,28.8428,18.2492,22.8218,11.2691,48.8739,26.1086,20.0773,7.7070,17.8627,-1.7583,15.6622,2.0378,-4.8612,4.2070,2.1400,-13.2328,1.8931,-3.0718,9.2530,17.7966,32.0568,39.8651,29.8370,44.1650,37.2782,23.1724,16.3646,32.2550,26.4663,22.8542,-4.8586,-20.1249,-22.2430,7.7551,13.5508,17.2940,11.9800,-10.4207,-7.3830,19.1536,28.7859,9.0913,16.7815,35.8435,56.0960,35.2482,45.2836,47.5269,60.3913,46.0406,38.1414,26.8070,20.4940,28.4894,18.7847,-0.9441,-0.6769,0.7709,-24.9409,-15.3830,-6.0838,-3.1778,0.3525,-16.4919,8.5328,9.2891,29.7260,18.2603,12.4110,20.9887,46.1451,42.2719,41.9020,30.9952,18.6359,46.4347,41.1996,42.0616,22.1873,47.6349,21.8870,30.2778,21.6120,32.1711,26.9565,1.1779,16.0668,27.4240,33.5285,29.0787,30.5443,51.9356,44.8812,49.3837,57.4572,57.3929,56.0245,38.8311,7.5502,-5.2861,13.4977,20.6878,30.6365,22.3874,23.5321,4.9991,10.2229,-6.1091,9.0137,21.1589,35.7586,34.7024,48.6397,47.4444,22.6291,30.2655,45.4506,48.4559,46.5814,28.2506,19.7124,10.8027,17.0284,42.1236,17.0187,-13.4818,-23.1052,-34.8688,-29.6100,-35.7556,-22.0044,-15.1701,-18.2564,-0.6325,-12.6139,15.0166,14.5716,32.1079,16.9223,20.3051,44.0195,28.5986,44.2524,29.2284,23.0762,30.1439,26.5175,7.8379,15.1858,14.7515,-5.0777,3.5498,5.9755,8.8296,11.1715,4.8304,-4.2519,8.7487,25.7890,-11.9184,4.2685,14.4145,17.4624,17.1059,32.5488,55.7342,62.3111,85.6525,74.7132,43.8701,22.8729,18.0491,32.2834,30.0627,25.1131,42.7676,55.5465,39.2293,18.6157,7.4530,8.1350,22.4076,5.4681,11.2547,32.5756,56.2975,50.3916,55.0344,26.2159,48.5449,32.3315,25.7855,39.5864,44.1907,41.7340,35.6450,22.9630,2.2100,-12.6170,-7.8366,18.7652,27.7869,21.7899,-2.4295,13.7173,35.5782,30.6227,16.0916,11.1519,13.8446,11.2985,38.5221,42.8761,36.2392,20.3483,22.0401,49.5354,59.6110,46.3340,28.6935,15.2602,8.6573,8.9861,-0.1691,7.3493,16.6420,30.3333,36.3702,40.4022,19.4099,28.5418,38.9328,37.5778,44.3461,66.6491,72.8191,45.8881,47.3509,43.4076,44.2754,56.0562,36.4076,45.7306,60.8295,35.5986,30.3201,11.9278,8.6292,17.7022,27.7796,14.5835,24.8841,6.0946,-10.3070,15.3735,46.4524,55.3849,59.9303,55.3566,49.2612,57.8355,69.9190,60.3421,56.8146,47.7628,59.0340,43.5741,66.8540,50.9114,46.7778,35.3366,-4.6828,-3.5086,0.7126,19.1705,13.4215,42.2260,45.5389,41.4168,48.2428,45.2693,44.8937,38.1249,60.2527,55.6292,65.7332,45.4591,24.8472,43.2599,50.8247,29.8811,8.1875,-8.7004,-5.6574,-4.9981,7.1624,14.0864,13.4491,-15.5940,-19.1647,1.2049,-5.3204,5.1779,23.2986,39.8469,31.4857,22.8219,33.9286,36.9724,30.7254,16.4618,16.9428,25.1705,19.7409,-4.2844,-7.0390,-12.1723,1.6282,-9.5152,-20.8713,-14.8010,-23.4704,-5.1898,3.8101,9.1531,12.7918,28.2683,38.5925,42.8535,36.2960,45.9583,31.9808,43.0975,41.6859,20.7562,23.6928,20.0685,-4.1935,18.4055,34.3887,29.1882,6.6058,-5.8219,10.1560,3.5277,-14.4754,-10.9962,-15.2359,15.1467,23.1620,22.7725,60.6472,40.2039,45.9499,29.5682,17.1724,27.4574,41.0294,58.1090,62.4971,53.1724,31.6749,11.9281,12.4904,2.9017,1.8371,-9.2694,-3.8505,22.9224,5.9337,-3.2801,5.8113,12.2119,54.7718,35.3849,23.9428,49.5086,71.5055,50.2428,67.9655,81.8572,31.6429,43.0017,51.0374,29.4865,32.4081,19.3265,0.9108,-5.3571,-5.2802,-2.5883,13.8776,39.6889,20.6450,25.0874,45.4450,46.1900,40.1535,34.8544,24.9891,46.3017,73.8274,48.6689,58.3192,45.2936,54.8222,45.7479,18.0136,12.9379,28.2879,29.1501,19.7776,0.5852,-12.1133,-3.2410,-9.3802,3.9528,-6.0780,-1.6917,5.5828,18.7317,8.2895,29.4505,41.1524,38.5512,12.6014,7.8242,22.4953,33.9412,11.3481,29.1680,32.8958,34.8026,25.4318,9.2036,-6.4691,-7.2489,-15.0395,-27.4001,2.6742,0.3520,22.1314,27.8579,26.1317,18.4078,27.6380,60.1502,90.1321,80.2698,57.9397,39.4217,36.4068,51.2926,33.4557,27.9715,32.7747,32.7790,40.6118,37.0221,32.9483,29.1403,29.3733,30.9587,40.3541,46.7728,53.2398,54.0548,44.5802,56.5606,42.2233,62.3608,73.5522,66.5156,43.1252,31.7616,40.0036,46.1160,21.4367,2.5292,25.6729,5.7366,14.6758,10.7150,-3.3753,5.3912,20.8046,-6.6402,16.9147,14.2618,10.4877,21.6412,19.5887,36.7644,56.9548,61.0972,44.9977,53.2923,64.3134,35.1985,28.3564,18.9635,43.4036,26.0105,15.9132,19.9979,27.3728,26.5701,26.5909,-7.9728,-29.1838,0.4980,-1.7636,-17.5989,-35.9276,-19.3677,5.7342,25.7661,27.5658,7.6837,19.4301,25.6882,38.7966,45.2764,58.0089,60.3322,30.3745,21.6499,-1.2466,-6.0631,5.2276,28.0332,18.9738,7.4352,5.7943,-3.2438,10.6153,0.0592,-5.0144,5.9322,51.6988,46.3859,55.4224,42.3990,39.5319,22.0157,61.3246,68.4942,33.1821,25.4764,1.1626,4.9148,0.4194,5.6084,-7.6210,-5.9494,-8.6740,6.0264,-7.6164,-5.7822,-5.5296,-10.7951,-1.9162,10.6148,27.3354,58.9753,66.7528,58.4685,65.5784,44.7985,49.8994,40.3023,30.9496,13.6796,15.2713,2.0807,-8.7788,4.4055,-10.6195,8.6647,-9.5407,-22.7840,-6.5587,8.2558,23.2002,26.9930,17.6172,25.9342,45.1021,17.0908,24.6451,55.2076,35.5854,30.1346,31.7622,14.3764,48.5000,34.0449,-6.4337,-8.6938,0.3024,3.4703,-20.6484,-14.8149,-18.4931,-20.8295,-13.8857,-3.1063,-5.9731,2.6320,-0.7996,-21.9756,-14.0857,5.2299,29.3467,42.7238,23.5878,28.3863,12.5654,7.2464,-15.0636,-17.3742,-1.3870,-13.6041,-12.5301,-6.5452,-13.2896,-34.4754,-51.6307,-29.6471,14.2267,12.0485,-17.8555,-9.7754,19.9223,20.6578,19.2384,11.4269,22.4650,45.0761,64.0070,51.4083,30.0436,15.4634,4.3493,4.3171,-16.4414,0.1899,-1.9953,-5.8320,-21.3465,-13.2348,-15.3211,-3.5715,-1.0266,6.0469,-17.6437,12.5047,29.5693,27.7162,30.4870,46.1920,24.8431,17.6501,25.5688,36.7101,41.2453,50.8438,43.8641,14.1839,17.7828,17.1345,9.1147,-8.5201,-12.5836,-10.5386,-9.3134,-34.3778,-7.6929,1.7772,23.6083,9.5831,8.5413,11.5904,-11.8046,7.4367,11.4587,2.1925,-1.7610,18.5404,6.2108,19.2655,-0.9469,-6.5457,-5.0529,-39.5725,-41.6855,-16.9587,-0.8708,-17.4647,-40.4464,-29.2628,-19.4189,-9.5589,3.8692,19.1507,21.5966,34.5218,38.1792,30.0971,15.9400,19.3760,32.6491,23.6013,16.1066,18.6685,-10.6544,-11.7920,-23.0544,-6.8260,1.4610,-12.8030,-9.7807,-1.1516,-4.3358,-6.0907,-7.1269,2.9511,27.2583,30.5120,23.6147,44.7625,54.3655,40.5291,22.2087,19.2402,23.2143,33.6565,44.7286,34.4319,8.3363,-27.7489,-21.9187,-23.8520,-4.4651,-24.0975,-28.5277,2.2710,-12.9684,0.3415,15.4309,20.9665,-3.1435,2.2150,37.0919,27.6711,40.5130,60.9540,61.2726,47.1720,30.2147,32.7875,26.5348,46.5775,37.8005,4.2498,27.8326,13.4944,10.9010,29.3042,8.4034,2.4657,8.4946,32.5802,37.0001,17.0774,19.4068,18.4203,27.0096,40.6092,52.6447,53.3989,51.9550,36.4462,14.2302,21.1527,24.0356,26.4679,8.2771,15.4997,-2.9527,-6.3864,-17.1942,-22.6630,-19.2172,-10.5046,5.2593,36.3330,33.6439,23.1162,21.9022,16.7167,38.3532,43.6086,20.8330,30.4497,19.8514,27.7852,23.7071,24.6259,36.3363,-7.3009,21.3122,24.1722,-23.6070,-19.9644,-4.7800,-12.2122,-18.0005,-10.7632,-27.4204,13.1615,25.4425,29.2853,27.0261,33.5668,25.1669,5.5987,14.8651,20.4139,19.6019,11.0263,11.1133,23.7753,19.2347,-0.0557,-0.9767,-12.5811,-25.7321,-9.0359,-8.2877,-24.4718,-15.6846,-19.2656,-10.1119,9.3846,31.2947,28.7670,12.1652,14.7416,14.4498,41.2005,45.7209,26.7543,21.1066,13.0271,0.5595,21.4118,28.3371,-13.2656,-38.9127,-10.2552,16.9785,-12.0848,5.9711,-5.2535,-2.8161,-17.7613,-29.8020,-12.4423,31.3728,47.1716,33.9301,16.9291,23.6901,26.7403,30.4144,21.5519,17.6125,24.3346,34.3890,46.0093,34.0494,4.9339,-6.3886,-9.6836,3.1438,4.9243,-1.8377,-23.6552,-23.4055,-1.3870,19.2593,16.3209,11.4538,13.5629,13.5020,14.8050,7.1488,5.0722,12.3347,18.6187,17.8325,8.2607,5.8320,6.4301,-18.7448,-40.7702,-38.0225,-14.1444,-2.1181,-23.5931,-22.5932,-38.8555,-34.8248,-15.7483,3.7475,-3.2351,-14.9377,-9.2287,-15.6598,4.3523,7.7917,28.5658,6.2555,1.4623,22.2219,-2.0283,12.2020,-12.8229,-20.0495,-9.3961,-29.0764,-49.8423,-43.3020,-38.6974,-30.1796,-22.1795,-37.2814,-14.4028,-18.8810,-15.5352,-7.9346,-7.6291,4.8984,14.7323,28.4241,25.6898,39.9640,47.2189,13.1021,6.0599,24.7804,0.7145,32.2804,14.8596,-28.6080,-28.7563,-4.3428,-13.3231,-25.7903,-30.9965,-28.1041,3.5069,20.3451,12.7015,1.0838,4.8975,10.8803,28.4965,11.7346,1.5734,-9.2140,-16.9962,19.2702,13.2520,10.1029,2.1961,-25.1963,-36.2133,-29.9916,-30.3214,-27.8710,-33.1353,-16.2143,-7.9156,-7.4744,13.7572,14.7678,20.0648,27.6568,14.6618,-7.0078,29.5052,14.2563,16.8993,6.2910,15.6311,3.5362,5.4661,5.2998,-18.1225,-24.1371,-32.8177,-10.5011,-20.5166,-17.7812,-24.3498,-29.7477,-39.1824,-7.7525,-5.9307,8.8982,20.5042,40.8604,13.6735,23.6841,21.6931,21.4977,70.2918,37.3699,26.5474,16.6118,30.4505,72.0424,38.0704,16.1877,13.9692,17.0364,29.9730,25.0353,8.3117,14.7920,27.9588,19.3016,28.1795,27.9220,46.5280,37.2878,31.0190,42.8737,33.4217,42.4575,63.3418,55.1685,39.5250,32.3567,38.2978,29.9225,16.4479,21.5435,-3.2510,9.5291,7.0591,-3.6722,-14.5722,-16.3097,-16.9422,-0.7325,3.7123,31.9898,23.0889,26.5277,21.5286,39.0439,37.6890,32.0302,26.6237,25.2711,31.1502,15.8937,8.4791,2.9898,9.6893,17.5715,8.4980,4.1930,9.7018,-2.8040,27.2704,31.0911,6.2259,15.0237,24.0840,27.8373,25.0759,36.2937,39.4542,27.6899,41.8015,60.1419,58.4519,41.9072,32.9536,23.5490,20.7462,14.9990,-1.8900,1.1880,9.1004,25.1843,33.4893,33.8627,7.7288,19.0009,-1.7385,-8.8699,9.6552,17.1539,30.1298,28.0559,8.7592,17.4309,28.3927,33.5685,-7.6996,13.7711,17.3559,11.2654,-21.0481,-13.1333,-9.9098,-22.8237,-5.9388,-20.4399,-10.2159,0.8737,-16.4522,-20.2241,-0.2154,-14.1609,1.2580,-9.3516,-7.9843,4.4875,4.4981,4.4394,30.1341,44.5883,15.0925,-9.1570,1.5184,14.6664,10.7948,-13.5127,-9.9100,-22.9057,-4.5472,14.8846,-3.4865,11.4327,-0.1578,-7.4154,-9.8650,-19.6386,-29.9331,-40.1308,-10.6655,-16.5677,0.2831,32.0435,29.7961,43.7014,18.4531,24.1633,15.6420,11.4667,24.4565,25.1631,-3.1694,-14.4487,-7.5689,-2.4236,4.9451,2.7641,-6.1107,16.1567,-1.2039,16.6901,36.0918,16.7812,24.2599,35.5468,37.7362,38.2093,27.5016,26.3756,8.7970,-12.4830,-11.3894,2.5699,22.1823,31.4927,14.9469,-32.9036,-33.7523,-16.1873,-2.1432,-6.0397,2.1064,11.8068,24.4737,9.4065,21.4279,27.5093,31.4429,28.0681,34.5902,20.2327,18.0869,25.5938,23.1092,4.2862,19.9105,16.5084,-2.9852,-1.1423,-11.5628,-10.8469,-8.8016,2.2929,-9.6596,-18.9878,-15.0677,10.7400,11.6561,21.5249,19.0958,24.9178,33.5351,27.8575,58.4185,52.6585,17.7746,13.9466,0.5205,2.1975,-15.8036,-16.4473,-14.9683,-15.3382,-1.9843,0.8149,-7.8258,-17.1548,9.2560,-0.7446,-13.1604,-0.1838,24.0286,18.3196,12.0524,15.4114,8.9442,17.7773,30.6639,22.6385,20.3671,21.4930,23.8123,28.2403,-21.8446,0.8477,-0.2247,2.8836,-15.5445,-18.7060,-10.3218,2.8409,-24.3607,-4.4364,6.5225,17.8938,-3.1462,13.3451,35.6710,24.9110,0.7179,14.4957,15.5561,17.4298,15.7586,16.7993,-0.2860,21.9680,46.1235,2.0358,12.0895,2.7761,-16.5826,-19.3644,-21.2314,-5.2587,6.3463,6.0748,-7.2072,-16.5219,0.4839,0.7530,17.2886,33.7871,23.3162,20.7850,27.3266,40.2999,7.0310,14.6017,0.7436,11.3911,5.2808,3.5527,-34.6932,-45.0439,-36.9006,-12.6012,-6.8661,-28.7253,-29.0624,-0.3838,-3.1842,-11.7339,13.8874,14.2169,24.8419,33.7802,20.3450,26.6716,28.6950,20.3821,26.2165,-10.5162,-4.6580,-24.2605,-36.2240,-32.8074,-38.6612,-10.9730,-22.5961,-11.2760,-16.1869,4.1117,-7.3206,2.0417,-2.2352,15.3428,19.7332,31.1632,12.6223,22.3678,18.0159,5.8047,8.8437,38.6938,30.2838,29.3665,38.0597,28.4003,24.8112,1.6675,10.1064,22.5329,-14.1481,-50.6811,-8.3135,3.5085,3.6012,15.8104,5.6072,22.1628,22.4492,29.4817,31.2786,33.3599,35.6627,45.1352,57.4144,44.0288,24.5233,-1.2692,-32.0340,-45.3554,-39.5120,-20.7781,7.6841,9.7738,-8.5047,-1.9057,10.3501,12.3522,14.3810,28.0299,36.4316,34.5502,48.8622,56.8335,31.8846,41.2873,61.8853,46.3053,30.2474,21.1555,1.1238,2.6163,-3.1556,-2.4670,-0.9769,-5.5518,14.8076,-0.2370,-0.4112,8.9850,32.5505,17.6260,28.3272,13.1128,5.1582,20.5642,39.9729,62.2888,52.6801,47.7048,37.0765,32.2288,25.6901,38.0777,41.0793,34.3685,5.8160,7.0096,34.9187,24.3275,16.5669,-1.9411,6.0407,4.6469,17.1311,8.5632,5.7260,9.0325,-3.7303,11.7907,39.5027,40.8687,36.9287,11.5619,12.7460,31.2813,20.1574,23.2680,2.9684,3.5724,-6.4458,16.9856,10.4583,3.5333,2.4378,18.0375,19.7181,20.2195,-1.5640,-5.8600,-7.6823,9.3308,1.0137,10.5362,32.0644,49.4245,37.1322,26.6091,3.8654,19.6573,-8.9782,-3.3339,11.3989,11.6180,9.0639,-18.3144,-43.6461,-15.0372,-23.6990,-12.0764,-11.1997,-0.3254,-19.3371,-16.1391,-4.2724,-9.1840,43.8524,20.3156,18.0365,23.3412,50.8282,34.2745,29.9906,4.4802,5.8145,10.4635,-12.0374,-16.6049,-12.0072,1.8097,0.9909,0.4001,-16.8522,4.3557,7.6173,0.5379,-1.6433,0.7729,5.4009,17.1380,26.8432,35.5835,47.1472,41.6781,24.1131,33.4332,49.9970,65.6422,43.9112,28.4715,18.5369,19.6463,13.5132,25.3008,18.9458,33.8962,14.3895,16.8203,9.4881,27.4281,45.8097,55.0003,21.5344,12.1315,25.2425,28.6548,56.1303,44.9821,44.9283,42.3429,47.6808,45.9536,30.1533,11.1050,24.2740,14.0052,2.3424,4.2130,20.6219,6.1042,-6.3657,2.3082,0.1950,15.7207,23.8782,34.5800,27.4094,40.9872,35.8165,54.3658,49.3407,33.5420,36.2351,52.8075,42.1791,36.9282,35.7626,11.1945,14.2155,13.2692,36.7164,38.4592,14.6974,17.0228,10.4039,39.1027,16.9441,3.3243,6.3386,40.1940,48.2610,21.9349,43.5097,49.3607,63.5148,45.4059,54.3546,67.3230,46.5694,39.2575,54.1749,31.7979,22.6332,15.5387,24.2954,8.1350,6.1618,4.7835,10.0284,18.2542,33.7572,21.0952,29.9267,48.2386,38.5278,50.6342,49.4009,49.4499,56.6116,48.1648,57.7646,56.4368,29.8750,41.8353,40.0771,33.5291,22.0067,4.0483,27.4405,37.7766,24.4561,10.8136,2.5543,6.6629,27.3132,22.4359,20.8854,34.5858,27.5821,29.6465,13.3608,41.4378,36.4869,37.4027,7.9540,13.8226,23.2331,32.2369,32.4790,21.0036,26.6493,4.6463,24.2650,6.4281,15.5857,7.6811,19.4394,9.2992,6.5330,31.4949,29.7686,16.0927,49.1945,32.6276,46.3371,30.6540,24.7212,37.4387,20.2040,33.4575,8.8215,7.2222,20.1036,18.0470,10.1056,-10.0804,9.9430,2.1460,19.0301,10.5157,22.9506,40.7784,34.8689,52.8046,38.9539,32.3526,23.7974,33.0193,41.2042,36.3735,43.9790,41.6270,22.6974,24.2530,38.4002,15.9535,-5.5600,-11.8572,0.8815,-6.0698,-13.4544,-8.0888,-2.1104,-7.3989,10.9710,15.5128,15.9665,10.4439,14.3893,36.2888,35.6804,43.8778,61.8819,69.2963,45.7005,41.1736,27.4436,34.6548,49.7232,28.2863,5.3044,14.6853,10.1123,7.3199,-1.1602,-22.2704,-12.3652,-12.4951,-13.5028,-19.8960,0.8353,39.7506,55.1675,43.3522,56.8498,37.3410,38.8174,35.4538,50.7646,34.4193,37.9096,15.3590,35.7655,20.3732,3.7096,8.4417,24.8116,40.9321,7.0106,-6.1063,-21.2299,13.2684,32.2993,16.8556,16.3217,30.9314,28.1453,20.3783,40.6901,25.9327,23.2271,48.5493,61.6178,30.5902,12.9390,-5.5577,-11.1616,-28.4470,-28.0506,-27.3582,-23.0199,-15.5461,-16.0872,-23.1570,-7.0214,8.9291,16.1367,15.3896,24.7419,-0.9329,-14.9187,22.3188,42.9690,26.6516,36.9226,33.0879,48.0949,39.6344,32.9678,37.2026,18.2545,2.9775,11.3126,-17.7577,-10.9173,0.7121,30.6952,-9.4538,-21.7617,-10.5478,-10.8009,16.5298,18.7991,12.1038,22.3817,36.6916,29.3143,21.3658,22.2954,21.3622,34.2504,29.2569,26.2367,24.4103,27.8129,43.0762,12.4679,-24.9216,-13.1309,-15.1941,13.3649,27.7959,21.4951,39.8600,14.7918,31.1589,18.9186,15.4184,49.3215,51.0583,61.0111,61.4025,71.3548,45.4721,45.4532,33.9980,31.0406,19.1908,2.8127,-8.9783,3.7396,21.8004,4.2202,-16.3389,16.4561,4.4409,31.1780,26.6522,56.6216,60.4212,53.9465,45.9182,56.6897,51.1548,59.4459,53.7566,38.4349,40.6397,30.7536,39.2694,24.5735,10.1775,7.2912,22.5238,-7.5226,-3.4082,-11.7794,4.3411,-4.6191,-9.2974,-15.1234,-19.1783,12.8557,17.0377,7.1380,23.2126,34.4238,39.1938,37.8484,35.7203,48.4683,30.4792,-7.0858,2.6082,28.0453,45.6108,20.0952,-15.8699,-27.5470,-6.7419,-3.9399,-7.0502,-23.6631,-5.6030,4.6294,7.6127,36.0264,39.2668,34.7394,21.3393,25.3136,13.5248,36.2040,49.9148,40.9293,41.1319,37.5611,10.2963,23.3507,28.0841,-6.5218,-11.7710,30.8895,-4.3298,11.8783,19.9035,15.1670,11.2456,35.4843,35.6859,34.6197,31.0232,27.5673,33.8523,35.5647,49.3478,36.6881,42.2541,54.8849,60.3250,65.3903,35.0601,45.1479,57.8642,55.1571,27.4455,-7.3209,-5.5785,1.5223,12.7794,25.7206,8.6116,9.9072,32.4118,22.2713,36.6925,33.0005,46.9455,40.8976,31.7550,23.2038,33.4865,16.6426,23.3017,29.2160,28.5198,19.1572,8.0116,3.1904,-12.0135,-8.6607,-25.2994,-22.0333,-11.8967,-23.0667,-11.6415,-6.8125,-5.6981,20.6155,16.5545,22.7248,3.9418,0.6053,16.0537,15.1615,25.7024,17.4991,24.6261,3.4404,16.8005,-13.6320,-4.5884,12.0057,-32.9026,-35.0674,-42.5793,-25.1560,-16.7367,-29.7235,-8.9454,-12.0332,-8.8490,23.7290,26.4689,26.2013,38.4766,45.8065,40.5280,34.4583,19.2915,5.6822,4.9620,11.7985,10.3536,4.8698,-4.5543,-7.0559,-3.3356,12.5797,-6.8938,2.0956,-3.6629,-21.6604,-15.0785,-7.3736,2.5235,-10.1307,25.9214,41.3510,53.4486,49.5714,34.1830,32.8408,41.7820,33.3156,18.2411,-0.9681,1.8825,-12.3756,-23.9360,-12.2828,-19.3137,2.1571,-31.0193,-43.1601,-14.7741,-0.4793,-11.9043,-12.9793,-9.2263,-9.0534,-4.6648,-6.2659,11.6005,16.0989,15.3619,1.6482,4.8328,9.0348,-23.1404,-21.3278,-11.3794,-5.9750,-0.2276,-51.4859,-75.1090,-31.7007,-35.5973,-24.2313,-13.6988,-3.1194,-9.3606,-1.7477,-5.4547,5.9149,23.6310,10.7794,8.9201,17.9885,33.9831,46.9519,38.5196,34.9667,4.5617,-12.4651,-13.9127,-31.0855,-24.3473,-31.7960,-26.1234,-30.8455,-35.9107,-20.9480,-36.3434,7.9632,-4.3376,10.3289,-1.1437,-4.5616,8.5072,6.0480,26.0451,53.2207,52.8883,12.3023,-11.4925,5.0682,9.4891,5.8146,5.8148,6.5645,-5.7526,-2.1564,-5.1595,8.6801,4.9688,-10.2660,-20.6595,-13.6843,0.6761,9.0072,7.4682,9.5125,26.2135,10.5079,39.1434,27.7273,15.8719,23.8968,30.2647,16.1155,0.7664,0.1369,1.7745,-3.0441,-33.4947,-29.1255,-17.5418,-11.7112,-15.7345,-15.5542,-30.9706,-18.7787,18.8692,15.3710,19.4642,8.8301,2.6538,20.4644,34.1658,32.0171,55.6161,58.5543,32.9446,37.8529,27.4181,32.3526,35.6085,15.6651,5.2659,7.3471,25.2912,23.1269,27.4197,29.0517,29.2929,1.5031,-2.3583,12.4176,46.8744,46.3904,41.8526,44.3094,36.4660,50.3757,42.3633,56.4298,59.1114,62.1575,37.3152,35.9095,36.0999,26.1231,-4.1819,23.7915,34.7781,33.8887,11.0775,11.7174,37.4547,57.4490,64.0601,74.0656,74.7647,87.6762,87.6663,100.7023,66.0406,76.4865,49.5661,49.1169,41.9451,3.5336,23.8604,53.3429,37.3426,-5.8038,-16.4666,-12.3913,-0.5149,12.6364,28.5579,41.6596,55.6876,48.9372,16.4059,35.6590,39.2463,70.4099,44.0409,42.1024,62.9950,58.1418,60.1221,37.9308,43.5954,16.8200,56.0665,38.2175,26.0782,12.0998,5.7518,0.6131,8.3244,29.9594,34.5628,26.1686,13.7359,21.8447,41.0158,48.3086,42.9679,40.7947,55.0109,50.3456,38.5026,48.2462,56.4798,51.3867,42.8882,19.9807,27.3380,50.9937,30.8287,34.5926,14.0133,18.0659,9.4339,9.7875,3.1127,12.3253,31.6273,58.9998,70.7347,51.0856,41.4743,48.0136,56.6412,65.1028,68.9198,60.2420,47.7056,20.0060,19.6724,40.6738,31.6996,40.0589,25.0337,21.8823,27.3347,30.8132,35.1253,56.6539,37.8934,60.7138,73.2120,58.1884,60.2003,61.3351,61.5583,60.1920,74.7018,79.8374,63.7475,71.0539,55.9095,52.5135,52.7111,33.9505,28.4257,28.5611,30.4553,-6.3437,4.1571,4.2824,31.6581,17.8879,32.0671,22.6437,49.7147,33.0798,42.0403,43.9251,35.5505,24.7441,33.4924,15.5289,37.8827,41.4289,19.7697,-22.9806,-35.4902,-16.7598,4.6534,14.0795,2.1464,-11.3400,23.4852,29.4752,14.1829,14.3348,0.1027,7.3711,-2.8374,13.3802,33.7532,62.3957,66.8805,35.3211,21.2602,28.1799,55.6436,60.1882,50.0998,42.0105,33.9213,29.8474,9.1850,-0.1753,-3.1005,25.2563,44.9513,39.9346,50.0084,32.0647,15.1497,12.0571,70.7691,75.0238,58.9440,49.5544,58.4317,46.8688,39.5050,56.4291,32.2639,28.1953,20.4385,42.6320,26.8300,-3.0092,21.2838,21.0136,14.8593,-11.7390,-22.3044,-5.8075,-7.2069,12.2509,-13.8267,10.4110,14.0808,20.7756,30.1032,43.5559,44.8175,42.6785,42.2909,59.9405,54.7260,29.4648,8.5140,16.1192,18.4658,11.1581,8.4860,18.4203,38.1832,32.7815,13.1946,22.9923,35.7308,45.2314,49.1631,21.1341,16.9283,43.4034,51.2647,57.1943,42.3529,52.0944,61.1265,35.9252,21.5357,11.1920,18.7923,32.9158,11.8903,24.7021,38.0008,16.8745,10.0791,1.1613,16.9485,22.2923,47.7343,48.3936,60.1679,53.7124,74.1641,74.8159,81.0055,71.7691,56.3162,84.7147,85.6352,48.6752,38.7998,18.2029,22.8703,29.1802,36.4291,17.1190,-11.4392,-20.6894,-0.6655,-1.5073,-1.8487,5.4825,23.1245,19.8355,41.2157,41.1314,40.7386,45.5144,38.2378,55.6632,47.5866,44.9418,48.8654,55.6604,59.1898,56.3975,57.8130,78.5450,46.2729,42.5995,19.7846,14.6500,20.3606,21.9305,47.2037,63.7067,58.7924,50.8046,50.9985,64.4304,91.4914,93.6283,94.9036,69.4544,67.6068,71.4432,58.8749,67.1260,49.8118,40.6818,63.7680,50.4006,46.0317,60.0934,60.5140,40.2641,42.1850,40.4187,41.1650,22.7832,19.2764,40.8820,59.9008,52.4178,71.4965,55.5961,61.6054,56.3788,46.3940,39.6574,47.9007,65.5902,52.9861,42.5234,29.6875,12.2842,-8.7587,-22.8756,-12.9561,-2.6167,11.8379,29.0590,14.2647,23.9301,37.8278,27.0173,56.2994,73.9209,82.3463,55.6900,44.0476,38.3272,61.9930,60.5138,50.2281,12.3645,12.0280,41.5975,45.2760,36.1164,49.7672,24.7096,35.2622,35.4818,33.9704,29.1956,16.4902,23.0627,34.7268,45.9364,63.8012,61.8223,53.1158,52.7751,59.9181,51.2238,53.7606,23.0965,24.5820,42.5050,53.3074,20.7561,22.1204,30.7206,23.6869,14.1584,11.4818,-22.4563,-32.6367,-22.4765,-21.9436,-11.2561,1.7036,2.0562,-10.1514,16.2730,36.3027,56.8321,57.3878,30.3786,-14.6447,4.6497,18.6890,15.2205,27.0906,2.2420,-2.1963,10.1858,-15.7334,-19.2516,-5.8484,-7.2094,20.7464,16.4532,21.5138,36.4815,28.2647,30.5122,14.6556,43.1205,65.6622,45.8040,51.3802,58.2827,70.2331,75.2092,48.4896,44.0940,20.6823,10.4645,4.3687,14.8608,15.9013,3.8943,23.9342,10.0489,16.5376,15.2815,21.7083,15.9022,27.6291,60.7797,60.5078,54.3681,45.7788,49.3120,61.7753,62.5465,54.3166,50.5889,46.7929,21.2407,23.4808,21.4789,2.8956,-2.5379,-14.0110,-10.7100,-0.2521,16.9775,1.9362,25.6232,20.3416,14.0465,40.9418,47.5836,48.8539,59.7096,68.4340,60.1440,54.1629,31.1070,46.8609,50.4586,49.3735,34.6231,17.9165,20.3766,1.9779,-2.8823,6.4636,0.7534,1.1606,1.8626,6.5400,4.6224,11.6757,25.6772,33.2455,61.3382,51.2886,77.2539,64.4336,48.3559,50.4952,66.7229,53.7408,69.1658,56.0425,43.9632,37.6133,29.4166,23.9436,15.0539,18.3587,26.6980,10.0618,19.2896,10.2518,17.2778,33.8137,34.6492,25.8145,46.1039,54.1834,46.9011,43.8154,30.9330,27.8452,44.3186,31.7704,30.1096,8.2525,-13.7613,-1.6958,-1.1533,4.9895,9.6918,-10.4481,16.2119,35.4075,28.1651,33.4185,54.6826,43.3347,46.8399,48.3538,32.1654,34.0150,44.5484,36.8587,18.0309,11.3118,12.1306,18.8639,12.2492,25.9144,35.8356,24.5600,10.4392,30.3288,8.2981,6.6644,5.7723,12.4371,6.1123,36.9189,15.3962,27.2243,50.2128,74.7319,74.6892,63.0496,45.7328,46.2967,57.0096,47.6779,27.1759,30.7145,55.3122,52.9408,28.5887,-1.5446,2.4263,2.5634,7.5140,4.4753,3.2574,-7.5938,31.5500,38.8605,35.1096,31.4715,20.5714,36.6547,19.9079,25.3741,65.1130,61.2811,45.2850,22.6837,11.8661,-3.3580,-20.7629,-11.6676,-0.1111,11.2844,14.9826,11.0558,-11.4088,-10.4573,-4.1199,6.8347,11.9627,28.8024,18.2311,0.4028,-6.7660,14.5648,26.9110,26.4114,25.0367,24.3192,52.4176,41.2185,17.3743,20.4188,8.8633,-8.6365,-2.7072,-11.2202,-24.4606,-38.5584,-37.3632,-12.4401,-18.1473,-18.2495,7.6103,5.3605,-4.4559,12.3766,24.6027,5.1920,35.0397,39.7345,34.0370,24.5078,16.3742,-2.6599,-0.9217,21.5232,-1.7592,-15.4355,-18.2020,-43.3442,-31.7941,-30.5005,-27.3592,-21.2850,-25.7173,-27.8276,-40.8454,-38.9538,-3.1309,-3.8028,-7.7710,-6.6520,-8.1120,31.0351,27.2045,8.2485,2.6596,-6.8856,-13.2665,-40.5172,-58.1144,-43.2437,-52.7127,-33.9543,-42.7756,-41.0615,-32.1761,-38.4432,-23.6463,-32.2861,-43.8547,-15.1287,-17.2357,-12.8416,13.2233,-9.7407,-8.9129,1.5825,10.0155,2.5410,21.2350,31.4559,20.3083,5.8782,0.8375,-11.7431,-30.0884,-0.7332,-5.8109,-10.5662,-14.0123,-28.9513,-5.7182,-16.9193,-8.9717,-20.0706,-1.2142,20.9786,-3.5682,-4.6680,21.0987,16.2822,19.6182,22.8941,13.1239,-5.7126,4.9856,3.0673,-9.3815,-19.4772,-11.4862,-19.2221,-16.9487,-17.8635,-12.2884,-25.2650,-4.1247,17.1750,23.7088,15.7217,21.2714,8.7145,7.0670,22.9430,23.0238,6.9716,28.4450,26.6776,29.4782,23.5439,21.6095,9.9399,-14.1288,-32.0218,-43.8919,-52.0820,-50.6760,-22.1554,-1.8016,-26.5395,-15.9661,-11.8500,3.2481,-1.4024,-5.7770,11.9422,14.7139,13.3018,25.8473,42.9961,25.4106,19.6456,7.6748,-14.8311,-27.9874,-18.8200,-21.6600,-16.6291,-33.4546,-28.5708,-15.3494,-19.6906,-30.8170,-7.0640,15.1021,44.8346,41.3380,45.3556,51.0121,47.5436,39.7623,63.4462,89.0677,41.3351,31.1628,40.9092,42.1628,33.4429,32.2452,2.3863,9.8224,19.7406,5.3579,21.6192,22.5242,37.2660,46.7347,26.1847,11.0368,35.8342,48.4330,55.5413,34.3826,29.9742,48.0348,68.8720,57.0910,48.9608,50.2229,52.1100,57.7138,47.8649,59.1023,38.7429,27.2654,26.3788,22.6619,49.2396,24.3952,18.2806,7.7040,44.4390,62.5584,55.4478,63.8600,43.5681,64.4423,63.5941,72.4279,67.9025,76.2900,68.0400,57.7185,15.8663,15.0988,18.4248,2.9372,12.6724,-8.1994,18.5095,10.4068,19.1051,28.4589,41.3027,19.8708,15.9951,29.7465,32.5026,55.0443,68.9372,62.4686,49.6416,55.1198,28.5912,27.6508,36.0005,61.5858,67.3618,52.3117,19.3319,25.3217,6.1154,-5.3381,24.3856,35.3438,20.2751,21.2692,-6.1627,-6.0811,-4.7179,14.7092,15.6382,19.2736,14.7945,62.3121,43.5801,45.6989,40.1447,21.8723,41.6622,29.7699,27.4912,19.6866,17.0319,14.2733,26.8577,21.6897,11.5323,9.6066,-1.5788,6.6296,-1.5528,-8.3675,9.6945,20.7012,36.3630,36.9419,36.5165,36.1667,43.1923,32.2098,48.5781,55.7206,33.9355,19.1193,12.6202,-3.8569,5.7649,-11.4006,-4.2001,-7.3823,10.6686,-11.1732,-21.4459,6.8762,-1.2260,5.8653,7.6964,5.7342,35.3722,42.0165,26.3649,33.5890,60.2007,52.3720,42.7645,36.3927,28.3883,30.5500,33.7958,31.1391,57.6224,55.3097,34.3945,14.0593,-17.3941,-15.4218,5.5293,28.5718,27.2891,25.5569,22.4395,18.8981,24.6823,26.6201,41.4992,59.2014,50.4535,65.8505,73.4513,41.0008,32.5618,17.1066,53.9482,34.2228,19.9637,27.4274,13.1648,0.6856,13.7361,10.1866,-9.4735,-1.1931,28.8554,29.6956,11.7418,24.8023,43.1459,43.3574,34.6367,28.6863,44.2488,45.7719,42.9054,37.6471,35.4449,7.1834,15.9765,20.5989,19.1592,34.7741,21.3952,24.5239,20.6317,26.0005,16.6347,7.3888,28.3693,14.2106,16.1586,15.3578,24.9974,-8.2301,0.2277,6.1271,15.3356,29.3887,45.0241,39.9708,41.7041,37.6755,15.8662,30.0365,34.6970,18.5281,-13.8958,-10.2233,-8.9258,7.4542,3.6392,-5.8456,10.8356,14.4193,24.6368,13.2011,18.9282,56.0302,51.0338,27.6571,2.9366,5.5302,15.2953,29.8103,24.8794,6.6312,12.9473,-22.7426,-7.0856,-19.7700,-23.8566,-42.8831,-18.4052,-15.6364,0.5187,-20.8466,-25.6597,15.9263,44.8851,46.7076,30.2332,26.1314,16.1622,38.6730,44.5371,30.9658,17.0655,9.9196,13.6165,20.2540,-6.3872,-7.9635,1.5778,-17.8409,-21.7468,-25.8396,18.6918,11.2982,22.1454,32.9070,4.2485,19.7671,23.8787,29.9077,40.8607,61.2134,60.2976,66.2081,48.3694,41.0153,50.6961,25.7766,19.5641,22.7504,28.1849,18.3214,13.9057,-6.5520,-3.9170,8.2039,5.0461,0.4999,18.0287,13.9395,-3.0776,14.4451,30.2597,44.3234,55.2575,48.8859,8.6317,23.1833,2.1917,13.4986,0.3003,22.3835,13.2544,17.1858,10.4855,2.7916,1.0229,9.0625,-2.8058,-21.3650,-21.4274,26.3579,41.4724,38.0020,44.8117,52.8939,42.5442,59.8178,54.0218,67.9199,55.8794,53.1999,64.2643,40.8688,23.3102,20.3748,10.5638,-0.4343,9.1408,-6.1213,-23.5107,-11.1508,-12.0052,1.5047,9.2757,8.6942,9.6971,15.4355,21.1966,10.9598,23.2426,19.9615,46.1303,35.1070,19.5158,31.6705,40.5228,31.3360,30.9879,26.3342,8.0698,-9.6162,-4.8559,-17.3119,-35.1685,-24.1997,8.6057,-7.5388,-7.1874,-6.0170,28.4720,17.7223,12.3696,32.9960,45.4797,18.5769,37.5937,15.8777,13.3005,49.8875,32.1136,14.9786,28.6863,0.6420,-14.8213,-6.1168,-23.9152,-8.8665,-28.7293,-42.1823,-35.3799,-36.0424,-7.3428,-25.6340,-13.4122,-10.6263,4.6676,14.8121,21.4751,16.3228,7.7599,8.8819,15.1174,8.2450,-16.7749,-6.5532,-6.7018,-18.8818,-48.1940,-31.9695,-31.2028,-9.2333,-17.8212,-7.2397,-14.6911,-10.2887,-4.0535,-20.0070,-31.6062,-17.8814,22.9230,18.0475,26.5109,34.2907,10.6721,15.7325,42.8902,62.7323,53.5179,13.4859,14.0308,10.7933,10.8089,8.1237,-1.3106,-13.2162,-5.7601,18.6826,-0.5337,12.8101,31.2089,24.6387,35.4843,19.9055,41.2512,43.6788,42.8745,47.6423,35.9070,29.8924,22.2240,39.6379,41.3910,49.1610,31.4816,11.0830,14.1482,17.3708,33.3521,32.7819,33.3129,9.7036,26.9042,36.3003,26.4433,10.8833,14.4678,30.8548,30.1721,13.4110,18.6815,31.5868,-1.2701,3.8327,-4.1042,3.6505,16.4271,14.4164,-6.4477,-28.8725,-30.5974,-11.4273,-14.0866,-21.5962,-39.0795,-13.6762,-4.4214,-12.7419,-5.7569,1.5525,1.6589,6.9928,-13.4930,-7.8964,-1.1212,30.8619,13.6502,5.3739,20.1411,-9.5249,-24.6908,-33.3582,-33.4026,-18.5209,-5.8019,-8.0102,-6.9225,-18.4874,-18.4489,-1.6551,15.9069,13.8191,16.8257,-11.3082,-7.2084,4.9491,12.5703,7.2094,7.5317,23.5540,30.1418,24.5097,17.8530,38.9982,46.8770,36.4843,23.5806,26.0116,13.5772,-2.7405,-3.2397,4.3370,15.2426,31.4345,38.0418,36.4815,38.4919,31.8856,35.8614,39.9854,51.5357,70.2963,93.9841,54.8986,41.7323,52.7886,51.8331,68.4078,64.1937,57.0638,40.3225,42.7873,13.1510,28.1383,21.9495,10.2562,-6.7819,-33.6895,7.6317,20.0259,31.4505,30.5827,20.9564,13.5461,24.5064,31.0076,38.7275,47.2040,44.1403,47.6239,36.0831,20.9225,11.5804,7.4203,-8.2084,6.0581,0.1620,12.0342,23.8595,12.6742,4.5608,-10.0088,-2.4088,13.6193,24.2344,40.8048,27.7224,34.7957,46.4338,56.7058,46.8852,60.1988,46.2134,54.6562,50.6217,33.7364,3.1868,-1.3489,-4.0207,18.0059,17.0578,-1.8258,-13.5516,-10.0839,-4.3573,3.8255,35.0074,25.1533,28.0127,29.0212,35.2433,47.1970,57.0971,66.2891,60.4409,40.8866,30.6866,37.5651,44.0014,27.2532,42.7909,17.3453,20.8233,13.6311,8.9301,-15.9404,7.6643,-5.3654,-9.0762,14.4193,6.7253,43.4229,28.3729,21.2034,18.5809,36.9835,53.4900,44.4358,44.8680,43.4275,16.9160,2.4955,12.0436,26.1505,16.3207,-3.6120,-10.8296,-15.1452,-10.0990,-4.6386,7.1570,15.4637,27.8271,19.2974,22.5029,22.4777,24.7036,34.1957,36.2230,22.3558,30.2496,49.7043,37.2332,23.6063,11.8590,1.1355,12.7230,4.4672,-14.3751,3.7315,3.7945,13.5417,-6.1201,-13.1170,-20.6527,-16.4332,-0.5257,7.5072,18.8881,11.7402,1.2758,27.8067,36.4610,54.6781,59.6671,48.0908,12.9801,45.1403,46.2442,40.1774,25.7154,37.0690,43.9932,35.3165,29.7992,36.0182,32.4940,13.2959,19.3800,20.9969,19.5668,27.5985,11.0146,21.5482,22.7921,24.9926,45.1718,29.1395,46.1797,41.8521,51.4023,39.3109,29.9262,25.6378,18.8305,11.0984,-22.6431,-12.8580,1.2143,-0.9701,1.8560,-18.6874,-19.8894,-4.5354,-4.1685,10.5001,10.8767,17.8587,-9.9084,-1.2754,3.7625,10.3848,43.1660,38.6147,21.6560,33.9334,20.2671,33.9498,15.8491,12.5488,4.6752,-16.3599,-9.6427,-2.0467,33.6644,31.8941,27.2060,-8.2325,-3.2307,7.1669,49.1430,51.5926,39.5983,31.5104,44.0204,43.3069,32.2696,24.3486,36.9934,36.2237,32.5933,34.3621,23.9043,3.3131,2.6388,-0.1175,27.5410,6.0984,0.7084,-15.8729,-18.5671,4.2568,31.0157,5.7444,2.5158,14.2681,40.2159,33.7271,22.1681,22.8500,25.8431,25.9177,8.9264,1.4169,17.6560,14.6594,17.5464,8.0137,11.1244,2.6863,1.7297,-15.6657,-28.5392,-11.6237,-7.4654,-5.5843,16.2160,17.4084,27.4031,15.7557,27.4081,44.7321,61.4196,33.9507,36.7781,14.8344,15.6405,32.8038,33.9747,31.9677,21.6096,27.6551,13.3615,-2.2035,8.8290,15.4315,32.3880,14.2172,-4.8020,-6.1620,13.2627,27.2870,24.2898,29.9869,30.6781,42.7837,16.4583,27.1552,24.3476,10.4679,29.2852,13.6764,15.9299,20.7708,38.5921,25.6566,11.2004,-4.0263,-1.5787,-0.4116,2.1820,-1.9834,-12.2541,-2.2771,14.9228,28.8766,14.3033,3.7030,25.1238,41.6766,52.0623,53.1053,37.6787,34.7835,30.8184,43.6562,42.6968,14.2399,-14.7459,2.0372,23.9708,6.2409,-5.3164,-9.7569,-1.1782,9.1598,11.8363,-6.6953,5.8165,27.5394,24.8317,6.0823,25.9418,52.0926,43.3981,31.6950,37.3713,51.8197,41.8477,22.2785,24.5573,13.0374,1.6366,14.3398,6.1450,-1.7904,18.5223,-4.3817,14.5066,42.1108,50.5309,41.3618,68.1368,50.1502,41.6074,45.5144,39.8437,50.7443,48.8953,57.9280,42.2329,7.4883,2.5843,13.0327,25.0606,32.1350,17.1710,0.1695,2.4934,10.6667,0.4808,-9.4620,-10.8936,1.9186,15.3638,9.2447,38.8229,75.4074,51.6025,37.6850,22.0167,26.2624,30.0715,34.1385,19.3697,22.4610,12.0860,14.6648,23.8559,-4.6307,-7.0489,6.1555,10.4608,25.9242,31.9571,6.3327,-16.7378,9.6831,15.7472,12.1938,16.1528,20.8846,32.5273,36.5083,48.6574,43.9082,58.7617,41.0202,57.7008,39.7447,25.1016,-5.5993,27.3471,6.1677,7.7752,-11.4642,-15.5119,10.6009,0.7113,0.0237,-2.5783,-10.7523,-0.7608,-1.1143,21.1492,59.5287,70.0158,79.3418,72.9366,72.1417,82.9936,60.2634,63.0858,44.3762,42.9075,44.2646,50.7413,45.5159,11.6000,26.4205,14.9087,15.3807,22.2621,30.6918,1.7452,-8.4919,9.4848,20.1650,56.0043,68.3374,56.6878,54.0400,53.9492,79.8927,70.9161,58.6881,46.0693,28.7503,21.8950,36.0129,18.3387,4.5678,-10.2060,9.5986,11.3083,30.9261,29.7224,30.2555,9.1978,31.4698,26.4401,30.4146,25.8708,33.3575,43.6623,46.6815,45.9432,64.0967,50.5970,31.8639,41.6127,33.8830,38.5549,9.2470,2.9296,1.8950,-0.0818,15.4476,-1.1068,20.1063,18.9256,40.6665,39.2520,47.2491,48.7095,57.4487,61.9801,62.9041,60.1878,70.3316,64.2153,66.8918,77.2861,75.5601,76.2055,74.9663,57.1797,53.9631,61.7136,50.8673,50.7031,35.5626,13.0609,14.5553,3.8353,11.4640,7.2517,13.2089,29.9323,32.3727,31.5837,51.1715,43.6902,52.7825,65.7753,46.6474,53.8858,32.0860,33.1963,30.1600,24.6707,50.5558,48.9842,32.7575,23.0352,18.5239,16.7692,9.1770,34.0312,12.2938,8.2356,58.4800,57.9352,50.8519,53.1775,67.0850,73.2605,39.0621,31.6706,46.8490,46.1303,51.0373,46.6668,24.6764,23.2582,26.6059,8.6150,-4.6707,5.6635,13.6999,23.2124,13.4353,-21.3590,-14.2364,24.4939,26.7986,51.3361,20.4520,47.5696,38.5749,60.0622,67.0134,76.6066,60.8199,30.0626,9.5868,2.5168,0.4989,-3.3418,17.5090,4.5934,5.9148,-16.6061,-8.3450,4.0003,8.5223,-1.3830,15.8760,25.4379,23.1529,14.6490,41.8045,47.9103,61.2287,45.5441,64.8062,45.9780,63.6023,33.0701,25.9056,-1.2535,10.5568,17.0229,18.0549,1.5014,-2.1880,11.5526,0.3289,2.2070,10.1324,10.9399,13.2525,16.2169,12.5104,53.3889,44.2601,35.7676,29.5453,8.7827,24.3165,51.3356,38.8241,15.7688,3.6737,17.5878,6.9734,-2.9105,-1.0629,-0.2334,-14.8982,-23.4860,-10.2988,11.5987,25.1520,22.7137,22.3647,3.4695,6.5172,48.3145,59.9733,44.2625,52.3181,40.5455,65.1767,53.9634,35.0913,14.7253,37.1370,39.7560,42.7957,38.6391,12.6395,-16.2718,5.4547,4.2283,14.2170,7.1301,-12.1141,-6.1414,5.3991,20.1628,36.1869,53.0844,73.4960,72.7895,77.7863,47.6621,67.0409,54.9349,69.6487,32.1202,34.0869,11.7829,14.9031,40.6194,7.4039,8.6569,-0.3979,14.7036,33.7811,19.0652,13.9029,19.4356,25.5630,33.3957,47.9009,58.0105,43.7305,43.1758,22.2618,41.6230,38.6225,39.3979,41.1527,44.6620,27.4523,25.8859,18.4450,1.9248,21.4679,30.4677,7.1391,-7.6738,6.3477,21.7861,33.1840,19.6212,8.1327,39.4101,47.5286,38.5131,33.8651,30.3727,55.0040,30.1850,35.8043,36.2035,30.8989,21.3547,-8.5659,-18.3682,-14.5848,8.9058,29.4177,12.5397,-13.3152,-6.1761,-0.0644,-4.4083,1.3695,23.1694,12.3440,38.2673,24.2900,35.4014,23.6864,43.4637,70.4931,65.6349,71.4753,46.9845,24.0966,8.2277,31.4884,23.3284,-3.6393,-12.8969,-8.5427,-6.4122,-0.1263,3.7718,2.0729,14.2331,10.8126,32.9052,39.3750,55.6082,32.6124,24.6566,20.0038,39.5648,20.1129,23.5157,10.3284,21.3205,24.3828,23.4594,10.5961,-3.2765,10.7268,6.6943,-2.2530,-15.9784,-0.5853,13.4874,2.8219,-2.8702,13.9261,-0.5657,14.3694,24.6516,31.7591,54.3896,63.1790,54.3780,32.8242,56.2411,46.2709,59.4850,47.5552,41.4876,30.9318,43.5192,21.5016,26.3332,25.5867,24.2657,19.3687,25.6907,33.7223,36.9672,25.2351,25.2174,48.1131,58.4236,81.1171,98.5135,74.9195,43.0591,56.6986,45.9182,58.8799,33.1503,37.7785,20.4781,37.7641,7.0023,5.9964,-6.7130,-14.9499,-1.0689,7.3623,18.8916,17.0562,-0.8860,8.4793,32.6154,37.1751,48.3011,35.6656,57.2452,51.7662,40.0764,61.8723,41.6523,29.8149,58.5089,28.8794,3.2714,21.5659,17.3977,23.3227,1.6893,-18.9805,-25.5879,-16.5109,-12.6810,-19.9059,-8.5844,5.4144,6.9779,-17.1370,4.7914,22.8976,24.7250,32.9910,22.6838,31.3281,42.9973,44.4832,21.9951,-2.0862,25.2414,22.9580,-0.9354,1.6684,-9.3966,-3.4433,10.1926,12.5125,27.4803,44.2808,53.5561,34.5591,20.2767,26.4631,42.9480,45.2834,39.6230,24.2875,42.3066,55.7888,33.9775,13.6946,-11.3395,-13.5125,-15.1545,-8.8812,-1.6613,10.4449,21.5849,22.0341,7.6252,14.4143,0.2667,27.1763,31.5267,40.8966,35.4796,46.5057,42.0903,45.6168,48.2034,24.2016,48.5229,74.5869,60.0609,33.5541,3.3098,3.4116,22.3463,24.1590,5.2645,1.4178,26.8689,17.3914,7.1403,33.9378,19.0732,46.3703,43.6697,5.6107,9.1072,34.9923,52.3855,59.3124,56.4414,36.4024,23.0511,32.3540,17.5130,25.9360,39.7173,41.0423,19.5328,16.5779,-1.4107,18.1520,6.6495,10.0526,23.9445,26.0770,42.6724,38.8223,42.9025,45.3729,64.7144,57.7938,69.2899,61.3533,63.8799,57.6195,75.2396,62.9235,46.4814,63.4314,58.4903,13.2156,8.6115,42.3038,38.3824,47.2520,30.4387,22.5875,38.9391,57.0363,48.2852,34.0903,50.4738,80.9429,98.1182,94.6228,111.1572,91.6449,88.8423,70.3989,71.4858,60.3913,76.5805,63.9642,46.1304,53.2312,30.7093,25.7135,11.4619,20.8219,4.4011,15.9572,49.0855,42.7323,30.4430,20.0056,42.5396,65.1440,74.4370,56.7801,68.5686,51.5651,44.9727,56.9557,48.9932,54.0967,41.1616,49.1609,46.0215,36.0858,28.8150,25.9254,12.1075,28.5043,2.5316,18.2384,43.9379,42.8629,38.2372,32.1430,32.1537,62.7620,38.6739,36.5378,37.5269,71.5751,61.1538,64.9983,62.3602,59.7310,51.5371,41.7855,39.6699,25.1458,23.2145,40.4148,24.8902,-5.2883,12.7689,27.8261,48.1050,38.9298,34.0034,35.1765,46.0185,58.6449,74.4830,62.6902,77.3520,59.3046,43.4961,33.2838,34.3942,51.3314,39.3022,44.0021,46.4877,66.8901,64.2950,60.3266,32.5212,48.8481,36.8313,34.1667,36.4319,56.1855,70.2806,83.8071,56.1769,57.2008,68.7418,67.5352,79.0612,66.3105,69.8224,84.2777,66.9003,66.7215,52.1298,53.7957,32.8753,39.8666,45.5925,29.4937,20.3132,13.9979,14.7298,37.7841,65.7518,44.5051,48.4456,47.7298,55.4064,72.6124,62.9779,55.8879,72.2301,76.7178,77.0441,40.6353,66.0467,58.0241,70.1254,59.3018,52.3895,28.4640,15.0919,19.8423,12.2050,22.3043,17.5533,30.7017,53.4817,50.1479,43.6536,58.4120,54.1165,80.8618,91.6318,90.8459,90.2863,67.8380,83.0199,68.5253,55.9445,17.7596,25.8570,21.3147,7.7564,11.7074,42.5835,51.1947,51.2798,50.1477,30.6368,46.4406,51.7734,46.7007,47.3134,51.2999,40.9404,62.2761,59.8799,37.6875,29.2030,46.9434,42.5011,44.9908,33.3601,16.1720,31.4865,20.3085,-18.8145,-24.4013,9.7936,26.2228,16.7245,19.6501,12.0802,21.5626,33.5616,31.2441,35.0964,48.4075,72.8041,34.1088,54.4313,31.8178,18.3229,33.5527,45.3375,52.0131,29.9919,-1.1359,-14.2253,-3.5207,12.4516,7.5264,-22.3444,-7.3697,1.7974,7.4307,-5.1722,-10.0445,11.9542,31.3777,0.4802,6.7888,25.3424,30.5291,27.4671,29.0324,38.3371,41.0344,44.8033,33.7299,9.4875,23.7127,23.3258,9.2473,20.6532,10.8487,28.7633,21.9481,5.8172,-1.2377,13.1260,27.6251,56.1486,54.0765,56.1514,52.9360,46.7425,56.1864,46.8064,62.9603,23.0807,8.6700,20.8208,25.7811,46.7596,33.2180,-20.2779,-17.8013,-10.2579,5.3251,-23.2643,-38.4823,-15.1211,18.7441,39.7557,12.7404,27.6776,51.3239,64.4412,64.0852,44.2004,54.8996,64.9311,77.3048,48.0826,34.5366,10.2268,33.5060,37.1943,18.8203,0.2402,0.2661,30.9417,5.8189,-2.2516,-16.8185,8.5450,40.7130,44.9372,54.7694,23.8066,20.6507,28.7432,32.0603,34.8051,32.8878,31.5480,33.1215,46.4606,9.2776,13.9730,-0.1126,23.4763,8.5148,8.1479,15.4837,-3.6321,26.9825,20.1545,3.4038,-7.8431,38.7298,32.4433,43.2862,47.9498,70.1224,49.7435,68.4735,75.3545,49.1565,54.4357,52.9628,47.5086,44.4205,49.4935,36.0749,24.2084,-2.2534,-3.9614,6.5624,6.0326,12.2077,-6.0463,16.7830,17.8334,-3.8671,46.6657,75.2143,74.5297,50.2546,34.0599,32.1657,46.6380,46.4527,44.9790,36.8297,42.8895,35.2719,23.7294,30.6118,5.8702,6.9814,-0.0736,-7.0369,-6.3602,7.8880,26.1531,15.7275,12.2629,11.2174,6.9297,48.7164,66.0731,54.8179,48.9499,52.8238,48.9893,61.0287,27.4244,39.6958,36.5300,59.8380,54.8529,38.8045,12.2854,10.7719,-14.9179,-11.3258,-8.8661,-5.5350,-6.5640,8.3383,38.3131,23.8931,36.9361,40.4020,59.2788,56.5559,49.9832,40.4365,35.9529,32.8236,48.6727,51.3869,25.4815,25.5371,12.9016,11.9680,5.7837,2.1987,2.4701,21.6769,26.0168,32.9437,27.6829,8.2326,11.6161,30.6229,37.0638,61.7645,45.9401,36.5863,57.5527,66.3132,62.4572,60.0125,53.1143,58.1806,42.6664,17.0910,15.5022,22.2976,12.4179,-15.7787,-31.3576,-18.3147,-6.4113,1.3698,-20.7672,9.5853,12.6225,23.2178,-0.1791,17.1300,21.7320,29.2553,32.4002,25.2356,35.0054,19.0587,43.8419,31.7648,23.4596,1.7614,-18.5456,0.9385,1.7514,1.4547,1.3564,6.5322,-0.2596,18.5391,9.6709,36.2578,20.7794,37.6722,47.3784,21.6502,40.1665,42.1523,58.8590,75.2727,48.2750,27.6172,21.2393,23.4569,16.7695,23.2287,11.3947,13.3600,19.4009,26.4932,17.7060,18.7065,21.9385,35.7758,50.2788,42.4021,31.6493,59.7130,59.7271,54.4211,62.1392,64.0628,58.4578,46.6436,39.3569,51.7254,44.1880,29.7126,24.6022,20.0098,15.1889,27.0640,5.0911,-16.4256,13.1999,18.9641,21.8859,24.6032,16.8111,22.2946,13.7243,27.3668,50.6199,47.1326,36.1618,28.6994,17.7269,34.8013,55.3209,26.5230,19.9215,20.8047,25.5459,14.5108,15.4488,5.4771,17.8637,18.8653,12.8235,23.0472,18.6227,24.7059,10.7426,-6.4349,-14.3440,10.1800,37.9548,44.8656,49.2702,40.9422,42.6854,54.0086,47.4646,10.2608,7.8933,23.0348,18.9418,3.0577,4.4153,-17.0730,-0.3921,18.2607,31.1711,13.7276,7.3939,6.1341,-15.6510,8.7168,37.7479,43.9920,7.2552,23.4174,41.8961,49.8486,62.1699,53.4175,45.9859,24.1692,26.0470,25.5468,7.8043,13.0700,9.7772,-1.7146,9.3707,14.0853,-0.5413,-3.1802,10.7335,27.0098,48.0303,34.4249,31.3180,35.0793,48.1057,44.0206,48.6821,46.3348,47.7937,41.4882,44.8356,33.0912,34.9073,16.2345,27.2416,28.0984,19.6973,21.6813,8.2343,-8.7869,-3.8379,32.5515,29.5888,23.9432,13.7595,30.2892,19.4193,54.2427,46.9151,70.5416,68.4779,60.0535,75.2448,48.7321,51.3301,47.4985,46.6830,-0.4794,-22.6610,-1.5460,18.6332,3.5172,-14.4739,-9.4915,5.1974,-16.6441,16.7951,29.9687,46.3155,46.3523,76.4536,63.3147,58.0556,53.4723,81.8099,107.0581,84.6129,74.6177,61.5875,61.8655,65.2089,67.7596,63.8233,53.3701,47.1454,47.8178,39.4541,64.4271,41.2351,45.8416,59.0003,59.3896,58.0842,45.3353,57.6833,64.7565,69.4494,56.3826,55.5168,59.3488,61.2088,16.5769,32.3484,21.6475,1.6877,-1.0451,-5.0836,0.3373,-2.2411,3.6568,10.9825,12.7463,16.2201,29.2303,33.8560,38.8792,31.8100,60.7621,50.3832,44.6355,35.2744,28.1799,29.4209,60.8691,66.3408,58.2577,28.9347,10.0453,-18.1756,-10.6829,-7.9895,2.2717,-4.5317,-9.7600,-2.0401,15.4676,24.6840,28.3287,16.3715,36.0397,43.2219,46.2823,61.4854,69.2657,70.5086,64.1733,55.7060,19.8728,37.3093,36.4366,26.5058,33.1344,22.4952,17.7118,18.5436,11.7412,-8.9187,9.2517,33.3902,30.0519,22.2089,8.0728,-13.7303,2.7035,56.6953,86.2183,81.6368,69.7603,43.4572,44.9158,35.7999,30.8726,39.5809,27.0117,27.7843,25.5597,25.8189,12.3657,6.9927,12.4142,12.8844,-5.4710,-5.7663,8.2070,38.1577,16.4932,21.6180,17.6424,59.8539,40.2675,48.2963,47.3090,44.0200,54.4096,45.1157,64.5001,80.3185,51.3570,15.1503,5.6020,-10.9160,-18.2523,-12.0278,-0.0846,7.3728,13.6118,19.0591,21.8333,35.6268,34.7653,22.0574,26.6948,14.5694,37.8819,81.0597,55.6867,59.2325,52.6693,44.7843,75.8192,38.1849,19.8984,17.4542,24.8735,9.8370,-1.8559,15.0679,0.9143,-7.3555,-6.1245,19.2251,13.6386,49.7058,45.6186,43.2559,40.3435,35.2594,45.4895,51.1259,45.3374,41.0428,58.7448,39.6136,55.6045,41.9531,24.6552,29.0054,24.6650,3.5335,29.6601,10.5992,-1.0848,4.0298,14.1429,10.1412,15.0577,30.9909,34.1213,45.7989,51.9002,43.4294,57.8007,56.0824,44.1105,44.3397,41.9929,48.6252,44.6811,64.6897,47.6352,33.4615,30.3859,31.2876,3.4667,13.0419,5.6331,26.2499,15.8694,32.2384,57.7610,54.8382,33.2979,41.6931,49.3406,63.8632,86.3106,72.0527,84.9020,59.5767,63.3261,60.4304,57.8002,59.3305,55.5721,28.9725,15.5979,20.5559,39.4403,22.9253,18.1592,23.6543,-5.1029,34.5936,49.8460,44.7197,33.6174,57.3650,66.5334,64.5458,44.8249,50.1442,57.7985,70.1267,25.7347,30.3086,44.9695,47.2588,34.2528,-2.4486,-2.2506,-13.6241,-2.9753,-0.7996,7.1695,-23.3128,-15.3695,6.8728,22.3653,16.0293,18.0255,42.0646,38.6055,46.3162,48.6208,31.4773,15.0037,22.7136,28.2475,18.9064,9.2084,-11.0280,6.7681,10.8821,9.7380,13.3945,1.3814,-0.8645,5.2109,-0.9458,17.6903,34.5012,45.0516,47.2926,20.2110,38.8285,80.5465,73.3095,63.6799,56.3088,66.8873,50.1176,39.4863,39.6905,32.2295,20.9401,14.6055,25.4761,32.9320,25.2354,9.7057,1.6792,-10.8166,-6.2440,16.2765,20.8603,35.3506,34.1226,16.1755,44.8205,33.4645,40.5323,52.6752,46.9706,18.4797,22.8097,18.5741,23.8032,39.6619,10.6731,15.3503,15.2312,32.3891,20.8081,8.7639,-21.4228,-6.5668,2.7520,13.5608,31.3804,22.3789,43.1467,27.1912,21.3544,23.2120,71.8887,67.1037,54.0718,45.2631,54.0650,44.2530,39.5416,25.4188,9.6859,18.1052,12.7167,11.3226,19.0959,12.5119,-11.7563,25.2725,17.5156,41.6308,55.7409,12.9944,14.8051,51.4737,60.0981,26.7004,28.7867,36.2919,41.2528,46.9065,33.3543,14.9189,37.6587,12.2981,12.8275,-20.5770,-10.0795,2.1473,32.1316,8.3494,16.7350,27.6957,30.2936,21.1872,26.9235,44.5657,50.0318,62.2210,33.8575,71.4825,77.4515,90.1722,85.1227,56.4213,58.1053,50.8555,55.3747,45.1544,26.3866,30.6765,17.7859,7.6707,20.3867,24.8244,14.4368,-11.5941,-6.6251,1.0652,33.8995,34.8591,12.6590,14.7823,46.9893,59.5561,34.0103,29.2173,21.3338,48.7412,52.1489,19.3909,11.4208,21.0218,13.5134,-19.3137,-27.7471,-0.3850,-7.2683,1.6564,16.5319,33.5873,16.9231,17.2424,39.8317,53.4484,65.4997,70.2701,81.6747,81.6360,69.9623,72.5956,55.5352,62.2940,79.5004,70.6777,67.6667,49.0210,19.0503,37.6112,32.6111,26.9638,27.1104,15.0689,11.7980,11.9382,11.1041,1.0514,27.6814,42.9402,52.2361,43.2316,60.3702,67.4028,73.6478,68.9479,51.8682,65.2846,60.1882,40.5336,44.6924,35.6851,34.7262,25.7521,9.8772,10.3486,26.4580,3.8960,-15.7775,5.0113,40.9161,54.9608,49.9129,32.9289,36.0842,48.3503,47.7061,20.6429,28.0310,35.0463,21.9029,9.0750,22.0491,21.7339,10.9496,19.5076,-5.5173,-8.4808,-15.0408,-14.6628,-23.9756,-4.0606,6.7770,30.8555,18.7751,13.2905,20.0324,46.6031,60.9465,33.0492,41.3294,45.6193,54.3965,41.7054,34.9634,17.1499,15.6509,38.2596,36.2558,33.8843,23.4745,15.3574,23.4247,14.8633,-0.1912,24.4538,22.3535,38.6634,48.3921,45.7614,30.9869,45.6571,59.1637,42.2371,57.0237,61.1927,47.1680,32.3697,38.8663,45.7729,9.4618,19.5602,20.9688,14.6998,8.8725,15.9398,22.3896,23.0253,21.6537,13.2051,31.0577,34.2089,27.4390,37.8662,44.9716,39.8546,27.4239,17.8530,36.5951,22.6350,20.0523,12.8630,5.7177,13.6791,20.5831,8.2099,-4.9278,-6.9986,-2.7261,6.1695,3.4676,-10.0532,8.3185,-3.9165,13.1496,21.9307,52.3207,49.2466,52.7191,43.5108,44.7936,61.5410,71.1280,88.2853,56.2085,57.8600,50.3048,43.7779,20.2344,20.7543,9.1424,9.3944,7.9158,11.8699,23.3599,21.8789,21.8840,14.0774,-9.7974,-4.2784,25.1622,33.0324,49.8799,43.9246,45.4592,59.4589,39.3842,33.2539,22.6859,31.3122,44.8235,41.8455,28.6304,9.4002,0.3916,5.0455,17.2916,19.6415,3.9267,-5.0424,-6.6482,11.8341,16.7093,20.1290,36.4153,29.2675,24.0260,55.2876,38.0518,31.7335,34.8354,35.6059,39.6561,14.2568,9.9666,12.3136,-4.5518,-2.0383,7.2310,1.8389,-0.4020,-17.9151,-29.0951,-7.7195,-18.2602,-23.0491,-10.6292,2.9578,11.9541,28.5568,45.4566,27.4225,26.7606,37.7204,38.3763,4.0445,14.8895,22.3043,18.4991,4.8042,-4.4725,4.3380,-18.3368,-48.5109,-21.5836,1.7217,17.9484,36.8255,20.7263,20.6351,46.6773,58.4490,44.0505,26.0959,37.4918,45.4951,17.3793,25.8672,46.0680,44.3699,40.4868,21.3366,-6.0387,3.4506,19.6037,27.9297,13.7475,-23.5074,-33.4103,-14.4969,2.9640,-7.0477,19.7908,1.1639,10.0938,15.5773,7.7504,5.3710,21.7892,36.0220,41.6648,49.9718,31.8657,31.9039,31.1989,40.6810,37.1674,26.0191,24.8004,46.0893,20.9006,23.1401,19.6137,34.9613,26.5875,-1.6743,2.8358,-8.4955,24.9750,37.9900,35.8314,39.6719,44.2010,36.3509,31.9558,34.6253,42.9832,41.3521,45.1067,22.6718,38.4381,45.4910,46.7446,20.4876,6.5253,9.5278,6.3513,-1.0374,-10.4942,-2.1989,25.9095,24.1872,12.8381,29.0137,40.5527,44.3679,22.9741,20.0385,14.8075,43.6217,24.1733,25.1817,11.0252,29.2280,29.9901,4.1058,-7.4000,-30.1045,-17.2169,-5.9257,10.6137,12.2619,2.9295,31.2593,37.3245,10.0635,16.3865,52.0521,60.6274,61.2203,52.2043,50.8965,69.3819,46.1319,44.0459,20.6869,14.8462,43.8564,29.7649,28.0375,16.3278,12.9409,10.1081,33.6632,49.3329,28.4593,21.1215,7.2516,23.9077,53.8443,41.4387,33.4020,30.0658,34.9285,53.9260,46.5788,43.1119,32.3015,39.2931,47.8514,30.5047,35.3130,31.5439,37.6609,48.1947,28.7371,27.9381,11.2167,25.6616,35.6580,27.5635,23.9116,25.4957,20.4493,26.8473,30.2031,35.1585,45.8646,39.4547,53.9227,60.0339,73.5972,42.1351,34.8035,20.2143,19.7867,16.5719,11.3995,3.7161,-3.1185,9.2422,10.3137,23.8887,26.4372,33.1702,3.1072,-17.9087,3.7090,2.2920,28.9194,23.3715,-1.6798,4.7647,20.5720,24.0776,7.4005,24.6674,6.5628,15.3613,-11.1066,21.8271,26.0848,2.9491,3.8696,-2.4027,4.5947,-5.1328,34.4090,28.1153,51.7897,46.6145,5.3406,37.7486,32.6265,42.4548,47.9238,55.3373,60.3436,33.3328,8.6106,19.5416,23.0884,41.9252,38.5095,15.4007,5.1491,7.9348,-1.4792,-18.2593,6.4995,-15.4305,-8.1653,-0.4705,14.1106,10.7383,24.0038,32.4239,10.7544,0.3528,15.4600,37.5190,40.1384,37.8513,8.7771,1.5815,15.4788,-3.2040,-1.5442,-22.4919,-13.1644,-14.5825,-6.5886,-21.3533,8.9225,14.3873,19.3272,3.2832,18.2630,20.2203,42.7612,16.1186,13.4797,33.4847,43.2035,46.8307,49.2465,37.1098,62.4034,37.4587,27.1762,19.7153,43.0106,73.7418,24.6135,13.9960,10.2498,31.2090,32.3542,28.1058,11.9544,26.5339,24.2003,35.2044,56.3602,63.7980,67.6996,44.7675,40.1601,17.1119,33.2722,53.9660,52.1172,42.9142,2.5166,0.2817,-10.3328,-7.4557,-6.1359,-0.6046,18.2121,27.1028,15.1784,17.9175,25.6254,29.1361,28.8939,44.5848,35.0417,-1.4670,-3.9476,9.1151,22.5775,26.1836,15.7421,14.0269,11.3038,5.5368,-2.0743,-9.8513,5.0038,3.4370,-6.0470,-3.3833,-15.6505,-7.9796,2.0283,16.3863,6.5890,3.4259,24.6652,13.8731,2.1151,2.9993,-1.6929,7.5789,7.7571,-0.6405,1.9111,-1.4681,3.9662,-30.0683,-30.9578,-15.8019,-28.1669,-20.9444,-34.3311,-18.6068,-20.4913,-15.4497,-1.9000,-4.3174,-16.2022,-2.3690,-1.9121,10.3638,29.0662,35.8813,37.6151,22.6191,47.3090,56.1548,39.0507,32.0401,12.1690,9.6769,15.1607,1.3476,-3.5149,19.4489,2.9456,0.4536,-5.6180,-16.7385,-0.4997,44.4163,36.3109,24.4610,24.8503,33.1366,47.4101,48.1730,38.7085,40.9142,51.5825,20.1579,15.9722,-11.9809,-25.7378,-14.4576,-6.4624,7.7307,-22.5640,-12.5978,-26.2341,-6.3638,-4.9339,-4.6640,-6.6795,-6.5671,3.7547,10.6064,20.9140,27.3525,38.9600,55.3681,47.6499,45.9347,46.7011,27.2411,32.6711,8.6492,-5.7961,-8.1593,-33.4225,-13.9379,-20.7707,-26.0414,-2.1273,-6.2217,7.9910,17.0405,27.5785,44.0143,15.8598,12.7582,51.3149,42.4784,43.3786,46.0759,32.4976,31.3927,38.7400,11.3864,0.7860,2.9997,-19.4613,-21.5514,5.7778,-14.0138,2.0270,12.4023,-0.3620,-15.2575,-15.8833,-2.9999,9.7450,11.7232,1.7264,31.0118,37.3907,30.7358,38.2756,45.5188,36.2918,29.4084,16.4840,5.1678,18.2865,22.3607,-7.4220,-21.2901,-26.9073,-3.8454,13.5230,17.4475,20.8212,0.7137,21.8701,18.1573,16.5066,24.1690,4.4263,29.8484,37.6107,31.0776,27.4350,25.5771,24.7707,22.1025,37.8897,19.9861,5.4301,3.2673,31.4493,14.9959,6.4943,5.5425,6.3054,28.6357,27.8308,21.6601,20.9005,36.2264,37.9747,46.4373,42.3689,42.9676,59.5062,72.0069,63.5599,56.5745,82.8265,62.4958,58.9003,56.7712,72.9083,51.7541,51.7491,46.1264,31.2447,56.6172,41.1165,30.9935,37.0769,62.3930,52.3914,54.6327,61.4409,64.1896,79.5201,79.6150,89.4891,90.9368,87.9870,85.3904,66.6534,51.8378,56.1110,73.0099,71.7381,34.1599,31.3149,37.4324,45.2783,19.5915,28.9861,21.1173,38.0533,55.3421,66.5206,69.6474,59.5534,56.2615,70.5688,45.0454,83.7054,98.9749,103.0773,91.5058,64.7032,66.2849,81.9124,50.8423,67.7369,68.8462,49.3427,68.2621,74.2334,57.4791,10.1180,36.2221,49.1244,73.9066,69.6719,57.9227,68.8415,62.4198,89.8533,83.0760,59.8025,68.2952,78.1912,54.4646,48.7984,10.7523,17.1479,16.3048,17.4950,31.7019,12.4669,12.5618,15.9204,29.2883,35.3976,27.0486,33.1916,38.3616,27.0346,12.4775,42.8053,35.9188,24.6149,51.5434,73.6927,64.2546,27.8806,26.1284,18.1416,14.8296,22.6401,11.2592,-8.5233,-6.7700,-7.0380,-19.5869,-31.7229,-24.2610,-27.6805,-12.4842,-10.9381,9.4502,0.8789,39.0471,12.8343,11.4343,13.9175,19.7156,41.4737,39.8135,52.5749,39.9697,34.8314,22.4153,8.5340,-11.6372,-0.3837,2.8712,-15.3816,1.7605,9.7863,27.0023,14.0682,-1.3931,11.5971,8.5082,25.1031,11.1621,-12.4714,42.2016,32.1313,30.2956,42.3173,14.8290,36.8985,39.3624,49.6755,49.3384,18.7243,-0.1786,9.8640,6.0149,18.5957,22.8786,16.1934,-7.1617,19.5682,36.1878,33.6384,40.3251,30.9468,31.6088,57.1308,58.6834,78.4535,74.4660,81.4455,66.3719,63.6776,75.5269,77.5485,93.7646,67.8501,49.0356,46.4896,47.0485,45.1806,23.3477,8.8096,32.8461,35.0204,24.1229,49.0612,56.2112,52.0058,38.8902,34.8083,55.4662,60.7003,52.1485,37.6563,57.6867,59.1673,49.3397,40.9806,37.3431,58.6235,58.7149,11.7130,-4.1927,7.8470,38.1945,42.5253,19.6293,15.7436,22.9154,16.7203,16.8469,38.1151,63.9890,75.7829,50.0896,40.3403,48.8214,87.3934,59.9783,51.8488,42.7463,28.4096,42.4889,18.2878,15.2000,11.0041,13.1718,19.5507,-13.4267,-4.0084,4.4873,17.9565,20.1464,35.1260,39.8589,38.5607,43.2969,37.5645,55.2735,41.6688,49.5053,48.4374,44.8852,23.3714,35.7508,28.0605,32.5880,9.7083,28.7428,24.9744,18.4557,10.1398,16.9611,19.1254,1.2865,3.2682,19.3946,20.9073,2.1092,7.7038,38.2538,27.7801,14.5504,31.2827,46.0391,40.0107,54.9301,31.1129,40.7824,47.5167,43.0284,38.5826,34.5822,13.5958,-7.9604,9.9247,16.3354,20.6504,15.8077,19.2400,26.2609,25.4773,22.4511,42.8738,18.5645,-0.6223,17.7315,26.9844,44.7311,26.8963,24.7839,15.2250,19.0926,18.8522,1.6591,-16.8630,-22.3438,-4.0583,-14.7597,-25.0962,-11.5898,-5.0989,-2.8704,1.8751,-11.6728,26.9326,35.1434,42.8109,55.2560,39.2025,35.7124,45.2531,73.1703,12.9981,33.0958,51.9254,48.9866,41.3403,28.7312,11.2748,-2.3603,13.1951,15.7947,10.4560,-17.6439,-28.0962,-21.3094,-8.9814,0.0817,17.6457,4.8714,9.0725,28.8708,22.1990,32.1880,32.9071,36.8204,22.7007,17.5116,19.0437,2.9155,19.7916,13.9195,11.4938,-18.8122,-9.2478,1.4701,11.6924,7.4926,-0.7908,12.4762,23.6576,29.3930,37.4629,23.4258,43.3434,16.6391,26.0701,28.5610,33.9890,27.3958,34.0362,1.9434,-9.6580,-8.4462,-11.9386,-0.9449,-10.7743,-16.9043,-26.6488,-32.4360,-19.0527,-15.6055,-11.2732,-41.0657,-45.1927,-14.3258,15.5671,-5.0434,-2.5070,-1.5416,4.6461,12.9485,19.4128,0.6839,24.4567,-11.7771,-19.2177,-20.5050,0.1263,30.1114,6.5396,-12.3296,-13.3108,-22.8406,-5.0647,13.8477,11.9084,15.2755,22.8550,17.6988,9.3529,24.2455,25.0326,46.7304,72.2382,73.5546,46.5675,25.3782,4.5514,12.6491,24.5563,27.3847,7.8188,1.3897,-3.1489,-5.1958,2.8500,-4.1975,-8.2881,9.8776,9.8978,23.6406,33.4838,24.6041,36.9987,37.9965,27.5069,23.7299,39.2344,44.6199,21.3359,29.0570,42.2563,36.4145,4.9572,-4.5463,14.0141,-14.2030,-10.7566,4.5491,14.1034,2.3138,15.6845,20.2766,6.2498,14.2700,42.4957,27.8585,9.1787,36.6622,50.7051,58.4380,58.3684,61.8807,59.6756,72.5641,40.7290,34.1899,38.7926,43.3986,33.0043,35.5229,18.6152,23.6522,31.5920,19.1104,21.1772,15.0884,14.0877,23.7803,14.8301,36.0039,51.8512,66.8419,56.3458,29.1275,28.3676,61.5180,75.7366,76.9536,37.7474,22.5090,10.8741,4.9861,-19.3464,-17.2057,-9.0645,-13.2771,11.2204,19.2360,3.2471,-1.2123,-8.0601,5.7356,43.7956,36.3534,22.2605,21.9130,23.6359,42.6327,41.2176,35.4053,30.7455,39.9130,33.5665,20.5040,9.7656,7.0985,1.6062,-7.0070,-26.8590,-11.3872,-2.4447,13.2868,-14.2669,-18.0972,-3.8779,11.7378,9.2100,-0.8647,13.5730,47.0718,59.7844,47.7711,44.0159,47.8094,34.2271,41.9317,37.4141,16.1736,21.9914,6.5804,4.8136,-7.1229,-11.8368,-5.3737,-16.5631,1.8408,8.4826,12.8989,3.4935,8.8081,38.0260,55.6921,53.3656,26.6458,39.2168,51.5183,21.6704,15.2634,33.5621,19.9057,7.2908,-4.4800,-8.5133,-19.4070,